;PC Software:StarLab Version 2.10 Build 25
;Logged:22/09/2022 at 16:01:54
;File Version:3
;Graph Type:Line
;Notes:                                                            

;Channel A:Nova II Photodiode PD300-3W-v1 (s/n:763106)  NN2.52 (s/n:767396)
;Channel B:Vega Thermopile 10A-V1.1 (s/n:693380)  VG2.44 (s/n:858327)

;Channel A:Details
;Name:PD300-3W-v1
;Graph Color:RGB(0,102,255)
;Units:W
;Settings:Measuring:Power
;Settings:Wavelength:1064
;Settings:Range:AUTO
;Settings:Filter:IN

;Channel B:Details
;Name:10A-V1.1
;Graph Color:RGB(154,0,0)
;Units:W
;Settings:Measuring:Power
;Settings:Laser:.8-6
;Settings:Range:AUTO
;--------------------


;First Pulse Arrived : 22/09/2022 at 16:01:54.689000
  Timestamp   	  Channel A  	  Channel B  	
         0.000	             	  4.646e-001 	
         0.007	  1.015e-002 	             	
         0.064	             	  4.647e-001 	
         0.071	  1.015e-002 	             	
         0.128	             	  4.647e-001 	
         0.135	  1.017e-002 	             	
         0.192	             	  4.647e-001 	
         0.199	  1.014e-002 	             	
         0.263	  1.011e-002 	             	
         0.288	             	  4.647e-001 	
         0.327	  1.024e-002 	             	
         0.352	             	  4.647e-001 	
         0.391	  1.012e-002 	             	
         0.416	             	  4.647e-001 	
         0.455	  1.020e-002 	             	
         0.480	             	  4.647e-001 	
         0.519	  1.015e-002 	             	
         0.544	             	  4.646e-001 	
         0.608	             	  4.646e-001 	
         0.615	  1.014e-002 	             	
         0.671	             	  4.647e-001 	
         0.679	  1.021e-002 	             	
         0.736	             	  4.647e-001 	
         0.743	  1.023e-002 	             	
         0.800	             	  4.646e-001 	
         0.807	  1.023e-002 	             	
         0.864	             	  4.647e-001 	
         0.871	  1.016e-002 	             	
         0.928	             	  4.647e-001 	
         0.935	  1.022e-002 	             	
         0.992	             	  4.647e-001 	
         0.999	  1.020e-002 	             	
         1.063	  1.029e-002 	             	
         1.088	             	  4.646e-001 	
         1.127	  1.022e-002 	             	
         1.152	             	  4.646e-001 	
         1.191	  1.020e-002 	             	
         1.216	             	  4.646e-001 	
         1.255	  1.024e-002 	             	
         1.280	             	  4.647e-001 	
         1.319	  1.030e-002 	             	
         1.344	             	  4.646e-001 	
         1.408	             	  4.645e-001 	
         1.415	  1.032e-002 	             	
         1.472	             	  4.644e-001 	
         1.479	  1.013e-002 	             	
         1.535	             	  4.642e-001 	
         1.543	  1.025e-002 	             	
         1.600	             	  4.641e-001 	
         1.607	  1.018e-002 	             	
         1.664	             	  4.641e-001 	
         1.671	  1.020e-002 	             	
         1.728	             	  4.641e-001 	
         1.735	  1.025e-002 	             	
         1.791	             	  4.641e-001 	
         1.799	  1.023e-002 	             	
         1.863	  1.020e-002 	             	
         1.887	             	  4.641e-001 	
         1.927	  1.020e-002 	             	
         1.951	             	  4.641e-001 	
         1.991	  1.022e-002 	             	
         2.016	             	  4.640e-001 	
         2.055	  1.026e-002 	             	
         2.079	             	  4.640e-001 	
         2.119	  1.021e-002 	             	
         2.143	             	  4.640e-001 	
         2.207	             	  4.641e-001 	
         2.215	  1.026e-002 	             	
         2.271	             	  4.641e-001 	
         2.279	  1.020e-002 	             	
         2.335	             	  4.641e-001 	
         2.343	  1.015e-002 	             	
         2.399	             	  4.641e-001 	
         2.407	  1.018e-002 	             	
         2.463	             	  4.640e-001 	
         2.471	  1.024e-002 	             	
         2.527	             	  4.640e-001 	
         2.535	  1.020e-002 	             	
         2.591	             	  4.640e-001 	
         2.599	  1.023e-002 	             	
         2.663	  1.026e-002 	             	
         2.687	             	  4.639e-001 	
         2.727	  1.026e-002 	             	
         2.751	             	  4.639e-001 	
         2.791	  1.025e-002 	             	
         2.815	             	  4.639e-001 	
         2.855	  1.026e-002 	             	
         2.879	             	  4.640e-001 	
         2.919	  1.028e-002 	             	
         2.943	             	  4.640e-001 	
         2.983	  1.030e-002 	             	
         3.007	             	  4.640e-001 	
         3.071	             	  4.640e-001 	
         3.079	  1.014e-002 	             	
         3.135	             	  4.640e-001 	
         3.143	  1.023e-002 	             	
         3.199	             	  4.639e-001 	
         3.207	  1.019e-002 	             	
         3.264	             	  4.639e-001 	
         3.271	  1.019e-002 	             	
         3.327	             	  4.639e-001 	
         3.335	  1.011e-002 	             	
         3.391	             	  4.638e-001 	
         3.399	  1.023e-002 	             	
         3.463	  1.022e-002 	             	
         3.487	             	  4.637e-001 	
         3.527	  1.029e-002 	             	
         3.552	             	  4.637e-001 	
         3.592	  1.026e-002 	             	
         3.617	             	  4.636e-001 	
         3.656	  1.023e-002 	             	
         3.680	             	  4.636e-001 	
         3.720	  1.026e-002 	             	
         3.744	             	  4.636e-001 	
         3.784	  1.028e-002 	             	
         3.808	             	  4.636e-001 	
         3.872	             	  4.636e-001 	
         3.880	  1.024e-002 	             	
         3.936	             	  4.636e-001 	
         3.944	  1.025e-002 	             	
         4.000	             	  4.635e-001 	
         4.008	  1.035e-002 	             	
         4.064	             	  4.635e-001 	
         4.072	  1.036e-002 	             	
         4.128	             	  4.635e-001 	
         4.136	  1.031e-002 	             	
         4.192	             	  4.635e-001 	
         4.200	  1.041e-002 	             	
         4.264	  1.030e-002 	             	
         4.288	             	  4.635e-001 	
         4.328	  1.035e-002 	             	
         4.352	             	  4.635e-001 	
         4.392	  1.043e-002 	             	
         4.416	             	  4.636e-001 	
         4.456	  1.053e-002 	             	
         4.480	             	  4.637e-001 	
         4.520	  1.046e-002 	             	
         4.544	             	  4.638e-001 	
         4.584	  1.044e-002 	             	
         4.608	             	  4.639e-001 	
         4.672	             	  4.639e-001 	
         4.680	  1.039e-002 	             	
         4.736	             	  4.640e-001 	
         4.744	  1.033e-002 	             	
         4.800	             	  4.640e-001 	
         4.808	  1.032e-002 	             	
         4.864	             	  4.639e-001 	
         4.872	  1.039e-002 	             	
         4.928	             	  4.639e-001 	
         4.936	  1.037e-002 	             	
         4.992	             	  4.639e-001 	
         5.000	  1.035e-002 	             	
         5.056	             	  4.639e-001 	
         5.064	  1.033e-002 	             	
         5.128	  1.039e-002 	             	
         5.152	             	  4.639e-001 	
         5.192	  1.039e-002 	             	
         5.216	             	  4.639e-001 	
         5.256	  1.035e-002 	             	
         5.280	             	  4.639e-001 	
         5.320	  1.039e-002 	             	
         5.344	             	  4.639e-001 	
         5.384	  1.032e-002 	             	
         5.408	             	  4.639e-001 	
         5.472	             	  4.639e-001 	
         5.480	  1.042e-002 	             	
         5.536	             	  4.639e-001 	
         5.544	  1.039e-002 	             	
         5.600	             	  4.640e-001 	
         5.608	  1.033e-002 	             	
         5.664	             	  4.640e-001 	
         5.672	  1.033e-002 	             	
         5.728	             	  4.640e-001 	
         5.736	  1.038e-002 	             	
         5.792	             	  4.640e-001 	
         5.799	  1.043e-002 	             	
         5.856	             	  4.641e-001 	
         5.864	  1.038e-002 	             	
         5.927	  1.025e-002 	             	
         5.952	             	  4.642e-001 	
         5.992	  1.031e-002 	             	
         6.016	             	  4.642e-001 	
         6.056	  1.031e-002 	             	
         6.080	             	  4.642e-001 	
         6.119	  1.029e-002 	             	
         6.144	             	  4.642e-001 	
         6.184	  1.033e-002 	             	
         6.208	             	  4.642e-001 	
         6.272	             	  4.643e-001 	
         6.279	  1.031e-002 	             	
         6.336	             	  4.643e-001 	
         6.343	  1.028e-002 	             	
         6.400	             	  4.643e-001 	
         6.407	  1.036e-002 	             	
         6.464	             	  4.643e-001 	
         6.471	  1.027e-002 	             	
         6.528	             	  4.643e-001 	
         6.535	  1.032e-002 	             	
         6.592	             	  4.643e-001 	
         6.599	  1.035e-002 	             	
         6.656	             	  4.644e-001 	
         6.664	  1.031e-002 	             	
         6.727	  1.023e-002 	             	
         6.752	             	  4.645e-001 	
         6.791	  1.029e-002 	             	
         6.816	             	  4.646e-001 	
         6.855	  1.037e-002 	             	
         6.880	             	  4.647e-001 	
         6.919	  1.034e-002 	             	
         6.944	             	  4.648e-001 	
         6.983	  1.040e-002 	             	
         7.008	             	  4.648e-001 	
         7.072	             	  4.649e-001 	
         7.079	  1.036e-002 	             	
         7.136	             	  4.649e-001 	
         7.143	  1.037e-002 	             	
         7.200	             	  4.650e-001 	
         7.207	  1.037e-002 	             	
         7.264	             	  4.651e-001 	
         7.271	  1.031e-002 	             	
         7.328	             	  4.651e-001 	
         7.335	  1.017e-002 	             	
         7.392	             	  4.651e-001 	
         7.400	  1.018e-002 	             	
         7.456	             	  4.650e-001 	
         7.464	  1.028e-002 	             	
         7.527	  1.034e-002 	             	
         7.552	             	  4.649e-001 	
         7.591	  1.038e-002 	             	
         7.616	             	  4.649e-001 	
         7.655	  1.019e-002 	             	
         7.680	             	  4.649e-001 	
         7.719	  1.035e-002 	             	
         7.744	             	  4.650e-001 	
         7.783	  1.031e-002 	             	
         7.808	             	  4.651e-001 	
         7.872	             	  4.653e-001 	
         7.879	  1.028e-002 	             	
         7.936	             	  4.654e-001 	
         7.943	  1.036e-002 	             	
         8.000	             	  4.654e-001 	
         8.007	  1.031e-002 	             	
         8.064	             	  4.654e-001 	
         8.071	  1.027e-002 	             	
         8.128	             	  4.654e-001 	
         8.135	  1.030e-002 	             	
         8.192	             	  4.655e-001 	
         8.199	  1.027e-002 	             	
         8.256	             	  4.654e-001 	
         8.263	  1.027e-002 	             	
         8.327	  1.026e-002 	             	
         8.352	             	  4.654e-001 	
         8.391	  1.026e-002 	             	
         8.416	             	  4.653e-001 	
         8.455	  1.029e-002 	             	
         8.480	             	  4.653e-001 	
         8.519	  1.026e-002 	             	
         8.544	             	  4.652e-001 	
         8.583	  1.029e-002 	             	
         8.608	             	  4.651e-001 	
         8.672	             	  4.650e-001 	
         8.679	  1.030e-002 	             	
         8.736	             	  4.650e-001 	
         8.743	  1.029e-002 	             	
         8.800	             	  4.650e-001 	
         8.807	  1.028e-002 	             	
         8.864	             	  4.650e-001 	
         8.872	  1.025e-002 	             	
         8.928	             	  4.651e-001 	
         8.935	  1.030e-002 	             	
         8.992	             	  4.651e-001 	
         8.999	  1.039e-002 	             	
         9.056	             	  4.652e-001 	
         9.063	  1.031e-002 	             	
         9.127	  1.034e-002 	             	
         9.152	             	  4.652e-001 	
         9.191	  1.034e-002 	             	
         9.216	             	  4.652e-001 	
         9.255	  1.026e-002 	             	
         9.280	             	  4.652e-001 	
         9.319	  1.031e-002 	             	
         9.344	             	  4.652e-001 	
         9.383	  1.028e-002 	             	
         9.408	             	  4.652e-001 	
         9.472	             	  4.652e-001 	
         9.479	  1.029e-002 	             	
         9.536	             	  4.653e-001 	
         9.543	  1.030e-002 	             	
         9.600	             	  4.652e-001 	
         9.607	  1.028e-002 	             	
         9.664	             	  4.651e-001 	
         9.671	  1.029e-002 	             	
         9.728	             	  4.651e-001 	
         9.735	  1.032e-002 	             	
         9.792	             	  4.651e-001 	
         9.799	  1.029e-002 	             	
         9.856	             	  4.651e-001 	
         9.863	  1.028e-002 	             	
         9.927	  1.028e-002 	             	
         9.952	             	  4.650e-001 	
         9.991	  1.022e-002 	             	
        10.016	             	  4.650e-001 	
        10.055	  1.028e-002 	             	
        10.080	             	  4.650e-001 	
        10.119	  1.035e-002 	             	
        10.144	             	  4.649e-001 	
        10.183	  1.012e-002 	             	
        10.208	             	  4.649e-001 	
        10.272	             	  4.650e-001 	
        10.279	  1.020e-002 	             	
        10.336	             	  4.650e-001 	
        10.343	  1.024e-002 	             	
        10.400	             	  4.649e-001 	
        10.407	  1.028e-002 	             	
        10.464	             	  4.648e-001 	
        10.471	  1.028e-002 	             	
        10.528	             	  4.648e-001 	
        10.535	  1.038e-002 	             	
        10.592	             	  4.648e-001 	
        10.599	  1.034e-002 	             	
        10.656	             	  4.649e-001 	
        10.663	  1.031e-002 	             	
        10.727	  1.030e-002 	             	
        10.752	             	  4.649e-001 	
        10.791	  1.035e-002 	             	
        10.816	             	  4.648e-001 	
        10.856	  1.032e-002 	             	
        10.880	             	  4.648e-001 	
        10.919	  1.040e-002 	             	
        10.944	             	  4.647e-001 	
        10.983	  1.038e-002 	             	
        11.008	             	  4.647e-001 	
        11.072	             	  4.646e-001 	
        11.079	  1.042e-002 	             	
        11.136	             	  4.646e-001 	
        11.143	  1.034e-002 	             	
        11.200	             	  4.645e-001 	
        11.207	  1.029e-002 	             	
        11.264	             	  4.646e-001 	
        11.271	  1.032e-002 	             	
        11.328	             	  4.646e-001 	
        11.335	  1.038e-002 	             	
        11.392	             	  4.645e-001 	
        11.399	  1.033e-002 	             	
        11.456	             	  4.645e-001 	
        11.463	  1.041e-002 	             	
        11.527	  1.045e-002 	             	
        11.552	             	  4.645e-001 	
        11.591	  1.049e-002 	             	
        11.616	             	  4.645e-001 	
        11.655	  1.037e-002 	             	
        11.680	             	  4.646e-001 	
        11.719	  1.039e-002 	             	
        11.744	             	  4.647e-001 	
        11.783	  1.040e-002 	             	
        11.808	             	  4.648e-001 	
        11.872	             	  4.647e-001 	
        11.879	  1.035e-002 	             	
        11.936	             	  4.647e-001 	
        11.943	  1.033e-002 	             	
        12.000	             	  4.647e-001 	
        12.007	  1.035e-002 	             	
        12.064	             	  4.647e-001 	
        12.071	  1.043e-002 	             	
        12.128	             	  4.647e-001 	
        12.135	  1.028e-002 	             	
        12.192	             	  4.647e-001 	
        12.199	  1.037e-002 	             	
        12.256	             	  4.647e-001 	
        12.263	  1.046e-002 	             	
        12.327	  1.046e-002 	             	
        12.352	             	  4.647e-001 	
        12.391	  1.043e-002 	             	
        12.416	             	  4.647e-001 	
        12.455	  1.049e-002 	             	
        12.480	             	  4.648e-001 	
        12.519	  1.036e-002 	             	
        12.544	             	  4.648e-001 	
        12.583	  1.037e-002 	             	
        12.608	             	  4.649e-001 	
        12.672	             	  4.650e-001 	
        12.679	  1.042e-002 	             	
        12.736	             	  4.651e-001 	
        12.743	  1.033e-002 	             	
        12.800	             	  4.651e-001 	
        12.807	  1.035e-002 	             	
        12.864	             	  4.650e-001 	
        12.871	  1.043e-002 	             	
        12.928	             	  4.649e-001 	
        12.935	  1.038e-002 	             	
        12.992	             	  4.649e-001 	
        12.999	  1.032e-002 	             	
        13.056	             	  4.649e-001 	
        13.063	  1.024e-002 	             	
        13.127	  1.027e-002 	             	
        13.152	             	  4.648e-001 	
        13.191	  1.028e-002 	             	
        13.216	             	  4.647e-001 	
        13.255	  1.026e-002 	             	
        13.280	             	  4.645e-001 	
        13.319	  1.030e-002 	             	
        13.344	             	  4.644e-001 	
        13.383	  1.025e-002 	             	
        13.408	             	  4.644e-001 	
        13.472	             	  4.644e-001 	
        13.479	  1.025e-002 	             	
        13.536	             	  4.644e-001 	
        13.543	  1.033e-002 	             	
        13.600	             	  4.644e-001 	
        13.607	  1.040e-002 	             	
        13.664	             	  4.644e-001 	
        13.671	  1.035e-002 	             	
        13.728	             	  4.645e-001 	
        13.735	  1.029e-002 	             	
        13.792	             	  4.644e-001 	
        13.799	  1.032e-002 	             	
        13.856	             	  4.644e-001 	
        13.863	  1.024e-002 	             	
        13.927	  1.014e-002 	             	
        13.952	             	  4.643e-001 	
        13.991	  1.021e-002 	             	
        14.016	             	  4.642e-001 	
        14.055	  1.015e-002 	             	
        14.080	             	  4.640e-001 	
        14.119	  1.014e-002 	             	
        14.144	             	  4.639e-001 	
        14.183	  1.032e-002 	             	
        14.208	             	  4.637e-001 	
        14.272	             	  4.637e-001 	
        14.279	  1.021e-002 	             	
        14.336	             	  4.637e-001 	
        14.343	  1.029e-002 	             	
        14.400	             	  4.637e-001 	
        14.407	  1.029e-002 	             	
        14.464	             	  4.638e-001 	
        14.471	  1.027e-002 	             	
        14.528	             	  4.639e-001 	
        14.535	  1.030e-002 	             	
        14.592	             	  4.640e-001 	
        14.599	  1.032e-002 	             	
        14.656	             	  4.641e-001 	
        14.663	  1.034e-002 	             	
        14.727	  1.025e-002 	             	
        14.752	             	  4.642e-001 	
        14.791	  1.017e-002 	             	
        14.816	             	  4.643e-001 	
        14.855	  1.020e-002 	             	
        14.880	             	  4.643e-001 	
        14.919	  1.020e-002 	             	
        14.944	             	  4.643e-001 	
        14.983	  1.017e-002 	             	
        15.008	             	  4.643e-001 	
        15.047	  1.020e-002 	             	
        15.072	             	  4.642e-001 	
        15.136	             	  4.642e-001 	
        15.143	  1.027e-002 	             	
        15.200	             	  4.642e-001 	
        15.207	  1.030e-002 	             	
        15.264	             	  4.641e-001 	
        15.271	  1.034e-002 	             	
        15.328	             	  4.641e-001 	
        15.335	  1.036e-002 	             	
        15.392	             	  4.642e-001 	
        15.399	  1.032e-002 	             	
        15.456	             	  4.641e-001 	
        15.463	  1.041e-002 	             	
        15.527	  1.033e-002 	             	
        15.552	             	  4.642e-001 	
        15.591	  1.033e-002 	             	
        15.616	             	  4.642e-001 	
        15.655	  1.045e-002 	             	
        15.680	             	  4.642e-001 	
        15.719	  1.037e-002 	             	
        15.744	             	  4.642e-001 	
        15.783	  1.032e-002 	             	
        15.808	             	  4.641e-001 	
        15.847	  1.043e-002 	             	
        15.872	             	  4.641e-001 	
        15.936	             	  4.641e-001 	
        15.943	  1.042e-002 	             	
        16.000	             	  4.640e-001 	
        16.007	  1.036e-002 	             	
        16.064	             	  4.640e-001 	
        16.071	  1.045e-002 	             	
        16.128	             	  4.640e-001 	
        16.135	  1.046e-002 	             	
        16.192	             	  4.640e-001 	
        16.199	  1.042e-002 	             	
        16.256	             	  4.640e-001 	
        16.263	  1.043e-002 	             	
        16.327	  1.038e-002 	             	
        16.352	             	  4.640e-001 	
        16.391	  1.044e-002 	             	
        16.416	             	  4.639e-001 	
        16.455	  1.034e-002 	             	
        16.480	             	  4.639e-001 	
        16.519	  1.038e-002 	             	
        16.544	             	  4.638e-001 	
        16.583	  1.044e-002 	             	
        16.608	             	  4.638e-001 	
        16.647	  1.023e-002 	             	
        16.672	             	  4.637e-001 	
        16.736	             	  4.636e-001 	
        16.743	  1.040e-002 	             	
        16.800	             	  4.635e-001 	
        16.807	  1.038e-002 	             	
        16.864	             	  4.635e-001 	
        16.871	  1.038e-002 	             	
        16.928	             	  4.635e-001 	
        16.935	  1.036e-002 	             	
        16.992	             	  4.635e-001 	
        16.999	  1.044e-002 	             	
        17.056	             	  4.635e-001 	
        17.063	  1.029e-002 	             	
        17.127	  1.042e-002 	             	
        17.152	             	  4.635e-001 	
        17.191	  1.040e-002 	             	
        17.216	             	  4.635e-001 	
        17.255	  1.051e-002 	             	
        17.280	             	  4.635e-001 	
        17.319	  1.041e-002 	             	
        17.344	             	  4.635e-001 	
        17.383	  1.036e-002 	             	
        17.408	             	  4.636e-001 	
        17.447	  1.041e-002 	             	
        17.472	             	  4.637e-001 	
        17.536	             	  4.638e-001 	
        17.543	  1.039e-002 	             	
        17.600	             	  4.639e-001 	
        17.607	  1.026e-002 	             	
        17.664	             	  4.639e-001 	
        17.671	  1.040e-002 	             	
        17.728	             	  4.637e-001 	
        17.735	  1.037e-002 	             	
        17.792	             	  4.636e-001 	
        17.799	  1.037e-002 	             	
        17.856	             	  4.636e-001 	
        17.863	  1.045e-002 	             	
        17.927	  1.036e-002 	             	
        17.952	             	  4.637e-001 	
        17.991	  1.036e-002 	             	
        18.016	             	  4.638e-001 	
        18.055	  1.030e-002 	             	
        18.080	             	  4.640e-001 	
        18.119	  1.033e-002 	             	
        18.144	             	  4.641e-001 	
        18.183	  1.023e-002 	             	
        18.208	             	  4.641e-001 	
        18.247	  1.034e-002 	             	
        18.272	             	  4.641e-001 	
        18.336	             	  4.641e-001 	
        18.343	  1.033e-002 	             	
        18.400	             	  4.641e-001 	
        18.407	  1.030e-002 	             	
        18.464	             	  4.640e-001 	
        18.471	  1.034e-002 	             	
        18.528	             	  4.639e-001 	
        18.535	  1.024e-002 	             	
        18.591	             	  4.638e-001 	
        18.599	  1.035e-002 	             	
        18.656	             	  4.637e-001 	
        18.663	  1.037e-002 	             	
        18.720	             	  4.637e-001 	
        18.727	  1.034e-002 	             	
        18.791	  1.036e-002 	             	
        18.816	             	  4.637e-001 	
        18.855	  1.028e-002 	             	
        18.880	             	  4.638e-001 	
        18.919	  1.027e-002 	             	
        18.944	             	  4.637e-001 	
        18.983	  1.017e-002 	             	
        19.008	             	  4.638e-001 	
        19.047	  1.027e-002 	             	
        19.071	             	  4.638e-001 	
        19.136	             	  4.638e-001 	
        19.143	  1.018e-002 	             	
        19.200	             	  4.637e-001 	
        19.207	  1.012e-002 	             	
        19.264	             	  4.637e-001 	
        19.271	  1.016e-002 	             	
        19.327	             	  4.636e-001 	
        19.335	  1.030e-002 	             	
        19.392	             	  4.636e-001 	
        19.399	  1.035e-002 	             	
        19.455	             	  4.635e-001 	
        19.463	  1.042e-002 	             	
        19.519	             	  4.636e-001 	
        19.527	  1.021e-002 	             	
        19.591	  1.025e-002 	             	
        19.615	             	  4.637e-001 	
        19.655	  1.030e-002 	             	
        19.679	             	  4.637e-001 	
        19.719	  1.016e-002 	             	
        19.743	             	  4.637e-001 	
        19.783	  1.018e-002 	             	
        19.807	             	  4.637e-001 	
        19.847	  1.029e-002 	             	
        19.872	             	  4.636e-001 	
        19.936	             	  4.636e-001 	
        19.943	  1.031e-002 	             	
        19.999	             	  4.635e-001 	
        20.007	  1.029e-002 	             	
        20.064	             	  4.634e-001 	
        20.071	  1.029e-002 	             	
        20.128	             	  4.633e-001 	
        20.135	  1.031e-002 	             	
        20.191	             	  4.632e-001 	
        20.199	  1.027e-002 	             	
        20.256	             	  4.632e-001 	
        20.263	  1.021e-002 	             	
        20.319	             	  4.632e-001 	
        20.327	  1.022e-002 	             	
        20.391	  1.038e-002 	             	
        20.415	             	  4.632e-001 	
        20.455	  1.033e-002 	             	
        20.479	             	  4.632e-001 	
        20.519	  1.041e-002 	             	
        20.543	             	  4.633e-001 	
        20.583	  1.039e-002 	             	
        20.607	             	  4.634e-001 	
        20.647	  1.034e-002 	             	
        20.671	             	  4.634e-001 	
        20.735	             	  4.635e-001 	
        20.743	  1.029e-002 	             	
        20.799	             	  4.635e-001 	
        20.807	  1.028e-002 	             	
        20.863	             	  4.635e-001 	
        20.871	  1.033e-002 	             	
        20.927	             	  4.635e-001 	
        20.935	  1.031e-002 	             	
        20.991	             	  4.635e-001 	
        20.999	  1.031e-002 	             	
        21.056	             	  4.636e-001 	
        21.064	  1.039e-002 	             	
        21.120	             	  4.636e-001 	
        21.128	  1.034e-002 	             	
        21.192	  1.036e-002 	             	
        21.216	             	  4.637e-001 	
        21.256	  1.037e-002 	             	
        21.280	             	  4.637e-001 	
        21.320	  1.026e-002 	             	
        21.345	             	  4.636e-001 	
        21.384	  1.036e-002 	             	
        21.408	             	  4.636e-001 	
        21.448	  1.039e-002 	             	
        21.472	             	  4.636e-001 	
        21.536	             	  4.636e-001 	
        21.544	  1.034e-002 	             	
        21.600	             	  4.636e-001 	
        21.608	  1.033e-002 	             	
        21.664	             	  4.636e-001 	
        21.672	  1.039e-002 	             	
        21.728	             	  4.635e-001 	
        21.736	  1.032e-002 	             	
        21.792	             	  4.635e-001 	
        21.800	  1.027e-002 	             	
        21.856	             	  4.635e-001 	
        21.864	  1.032e-002 	             	
        21.920	             	  4.635e-001 	
        21.928	  1.034e-002 	             	
        21.992	  1.038e-002 	             	
        22.016	             	  4.635e-001 	
        22.056	  1.033e-002 	             	
        22.080	             	  4.636e-001 	
        22.120	  1.037e-002 	             	
        22.144	             	  4.636e-001 	
        22.184	  1.038e-002 	             	
        22.208	             	  4.635e-001 	
        22.248	  1.043e-002 	             	
        22.272	             	  4.635e-001 	
        22.336	             	  4.635e-001 	
        22.344	  1.040e-002 	             	
        22.400	             	  4.634e-001 	
        22.408	  1.044e-002 	             	
        22.464	             	  4.635e-001 	
        22.472	  1.044e-002 	             	
        22.528	             	  4.636e-001 	
        22.536	  1.050e-002 	             	
        22.592	             	  4.636e-001 	
        22.600	  1.050e-002 	             	
        22.656	             	  4.636e-001 	
        22.664	  1.041e-002 	             	
        22.720	             	  4.636e-001 	
        22.727	  1.039e-002 	             	
        22.792	  1.045e-002 	             	
        22.816	             	  4.636e-001 	
        22.856	  1.044e-002 	             	
        22.880	             	  4.637e-001 	
        22.919	  1.036e-002 	             	
        22.944	             	  4.637e-001 	
        22.984	  1.050e-002 	             	
        23.008	             	  4.637e-001 	
        23.048	  1.048e-002 	             	
        23.072	             	  4.636e-001 	
        23.136	             	  4.636e-001 	
        23.144	  1.049e-002 	             	
        23.200	             	  4.636e-001 	
        23.207	  1.047e-002 	             	
        23.264	             	  4.637e-001 	
        23.272	  1.035e-002 	             	
        23.328	             	  4.637e-001 	
        23.336	  1.044e-002 	             	
        23.392	             	  4.638e-001 	
        23.400	  1.045e-002 	             	
        23.456	             	  4.639e-001 	
        23.464	  1.037e-002 	             	
        23.520	             	  4.639e-001 	
        23.528	  1.041e-002 	             	
        23.591	  1.042e-002 	             	
        23.616	             	  4.640e-001 	
        23.656	  1.036e-002 	             	
        23.680	             	  4.641e-001 	
        23.719	  1.034e-002 	             	
        23.744	             	  4.643e-001 	
        23.783	  1.034e-002 	             	
        23.808	             	  4.644e-001 	
        23.847	  1.029e-002 	             	
        23.872	             	  4.645e-001 	
        23.936	             	  4.646e-001 	
        23.943	  1.029e-002 	             	
        24.000	             	  4.645e-001 	
        24.007	  1.026e-002 	             	
        24.064	             	  4.645e-001 	
        24.071	  1.032e-002 	             	
        24.128	             	  4.644e-001 	
        24.135	  1.031e-002 	             	
        24.192	             	  4.644e-001 	
        24.199	  1.040e-002 	             	
        24.256	             	  4.644e-001 	
        24.264	  1.028e-002 	             	
        24.320	             	  4.644e-001 	
        24.327	  1.031e-002 	             	
        24.392	  1.028e-002 	             	
        24.416	             	  4.645e-001 	
        24.455	  1.014e-002 	             	
        24.480	             	  4.645e-001 	
        24.519	  1.017e-002 	             	
        24.544	             	  4.646e-001 	
        24.583	  1.022e-002 	             	
        24.608	             	  4.646e-001 	
        24.647	  1.013e-002 	             	
        24.672	             	  4.646e-001 	
        24.736	             	  4.646e-001 	
        24.743	  1.018e-002 	             	
        24.800	             	  4.646e-001 	
        24.807	  1.024e-002 	             	
        24.864	             	  4.645e-001 	
        24.871	  1.029e-002 	             	
        24.928	             	  4.645e-001 	
        24.936	  1.029e-002 	             	
        24.992	             	  4.645e-001 	
        24.999	  1.017e-002 	             	
        25.056	             	  4.646e-001 	
        25.063	  1.025e-002 	             	
        25.120	             	  4.646e-001 	
        25.127	  1.020e-002 	             	
        25.191	  1.014e-002 	             	
        25.216	             	  4.646e-001 	
        25.255	  1.018e-002 	             	
        25.280	             	  4.646e-001 	
        25.319	  1.026e-002 	             	
        25.344	             	  4.646e-001 	
        25.383	  1.026e-002 	             	
        25.408	             	  4.646e-001 	
        25.447	  1.017e-002 	             	
        25.472	             	  4.646e-001 	
        25.536	             	  4.646e-001 	
        25.543	  1.023e-002 	             	
        25.600	             	  4.645e-001 	
        25.607	  1.021e-002 	             	
        25.664	             	  4.645e-001 	
        25.671	  1.028e-002 	             	
        25.728	             	  4.644e-001 	
        25.735	  1.032e-002 	             	
        25.792	             	  4.643e-001 	
        25.799	  1.027e-002 	             	
        25.856	             	  4.643e-001 	
        25.863	  1.029e-002 	             	
        25.920	             	  4.643e-001 	
        25.927	  1.028e-002 	             	
        25.991	  1.028e-002 	             	
        26.016	             	  4.642e-001 	
        26.055	  1.026e-002 	             	
        26.080	             	  4.642e-001 	
        26.119	  1.036e-002 	             	
        26.144	             	  4.642e-001 	
        26.183	  1.039e-002 	             	
        26.208	             	  4.642e-001 	
        26.247	  1.031e-002 	             	
        26.272	             	  4.642e-001 	
        26.336	             	  4.642e-001 	
        26.343	  1.037e-002 	             	
        26.400	             	  4.643e-001 	
        26.407	  1.040e-002 	             	
        26.464	             	  4.644e-001 	
        26.471	  1.037e-002 	             	
        26.528	             	  4.644e-001 	
        26.535	  1.042e-002 	             	
        26.592	             	  4.644e-001 	
        26.599	  1.041e-002 	             	
        26.656	             	  4.643e-001 	
        26.663	  1.041e-002 	             	
        26.720	             	  4.643e-001 	
        26.727	  1.048e-002 	             	
        26.791	  1.046e-002 	             	
        26.816	             	  4.642e-001 	
        26.855	  1.042e-002 	             	
        26.880	             	  4.642e-001 	
        26.919	  1.047e-002 	             	
        26.944	             	  4.643e-001 	
        26.983	  1.047e-002 	             	
        27.008	             	  4.643e-001 	
        27.047	  1.045e-002 	             	
        27.072	             	  4.643e-001 	
        27.136	             	  4.643e-001 	
        27.143	  1.042e-002 	             	
        27.200	             	  4.644e-001 	
        27.207	  1.041e-002 	             	
        27.264	             	  4.644e-001 	
        27.271	  1.041e-002 	             	
        27.328	             	  4.645e-001 	
        27.335	  1.042e-002 	             	
        27.392	             	  4.645e-001 	
        27.399	  1.047e-002 	             	
        27.456	             	  4.645e-001 	
        27.463	  1.049e-002 	             	
        27.520	             	  4.644e-001 	
        27.527	  1.052e-002 	             	
        27.591	  1.055e-002 	             	
        27.616	             	  4.645e-001 	
        27.655	  1.049e-002 	             	
        27.680	             	  4.645e-001 	
        27.719	  1.047e-002 	             	
        27.744	             	  4.646e-001 	
        27.783	  1.038e-002 	             	
        27.808	             	  4.646e-001 	
        27.847	  1.041e-002 	             	
        27.872	             	  4.645e-001 	
        27.911	  1.055e-002 	             	
        27.936	             	  4.644e-001 	
        28.000	             	  4.643e-001 	
        28.007	  1.043e-002 	             	
        28.064	             	  4.643e-001 	
        28.071	  1.049e-002 	             	
        28.128	             	  4.643e-001 	
        28.135	  1.052e-002 	             	
        28.192	             	  4.643e-001 	
        28.199	  1.051e-002 	             	
        28.256	             	  4.644e-001 	
        28.263	  1.051e-002 	             	
        28.320	             	  4.644e-001 	
        28.327	  1.054e-002 	             	
        28.391	  1.055e-002 	             	
        28.416	             	  4.644e-001 	
        28.455	  1.062e-002 	             	
        28.480	             	  4.645e-001 	
        28.519	  1.048e-002 	             	
        28.544	             	  4.645e-001 	
        28.583	  1.045e-002 	             	
        28.608	             	  4.646e-001 	
        28.647	  1.050e-002 	             	
        28.672	             	  4.645e-001 	
        28.711	  1.047e-002 	             	
        28.736	             	  4.644e-001 	
        28.800	             	  4.643e-001 	
        28.807	  1.040e-002 	             	
        28.864	             	  4.642e-001 	
        28.871	  1.046e-002 	             	
        28.928	             	  4.642e-001 	
        28.935	  1.038e-002 	             	
        28.992	             	  4.641e-001 	
        28.999	  1.046e-002 	             	
        29.056	             	  4.640e-001 	
        29.063	  1.046e-002 	             	
        29.120	             	  4.640e-001 	
        29.127	  1.040e-002 	             	
        29.191	  1.029e-002 	             	
        29.216	             	  4.640e-001 	
        29.255	  1.030e-002 	             	
        29.280	             	  4.640e-001 	
        29.319	  1.034e-002 	             	
        29.344	             	  4.640e-001 	
        29.383	  1.034e-002 	             	
        29.408	             	  4.640e-001 	
        29.447	  1.035e-002 	             	
        29.472	             	  4.640e-001 	
        29.511	  1.033e-002 	             	
        29.536	             	  4.641e-001 	
        29.600	             	  4.641e-001 	
        29.607	  1.035e-002 	             	
        29.664	             	  4.641e-001 	
        29.671	  1.039e-002 	             	
        29.728	             	  4.642e-001 	
        29.735	  1.038e-002 	             	
        29.792	             	  4.642e-001 	
        29.799	  1.040e-002 	             	
        29.856	             	  4.642e-001 	
        29.863	  1.033e-002 	             	
        29.920	             	  4.642e-001 	
        29.927	  1.032e-002 	             	
        29.991	  1.035e-002 	             	
        30.016	             	  4.642e-001 	
        30.055	  1.036e-002 	             	
        30.080	             	  4.641e-001 	
        30.119	  1.040e-002 	             	
        30.144	             	  4.642e-001 	
        30.183	  1.031e-002 	             	
        30.208	             	  4.642e-001 	
        30.247	  1.032e-002 	             	
        30.272	             	  4.642e-001 	
        30.311	  1.039e-002 	             	
        30.336	             	  4.643e-001 	
        30.400	             	  4.644e-001 	
        30.407	  1.029e-002 	             	
        30.464	             	  4.645e-001 	
        30.471	  1.034e-002 	             	
        30.528	             	  4.645e-001 	
        30.535	  1.036e-002 	             	
        30.592	             	  4.645e-001 	
        30.599	  1.037e-002 	             	
        30.656	             	  4.644e-001 	
        30.663	  1.040e-002 	             	
        30.720	             	  4.644e-001 	
        30.727	  1.038e-002 	             	
        30.784	             	  4.644e-001 	
        30.791	  1.044e-002 	             	
        30.855	  1.046e-002 	             	
        30.880	             	  4.644e-001 	
        30.919	  1.040e-002 	             	
        30.944	             	  4.644e-001 	
        30.983	  1.049e-002 	             	
        31.008	             	  4.642e-001 	
        31.047	  1.046e-002 	             	
        31.072	             	  4.642e-001 	
        31.111	  1.048e-002 	             	
        31.136	             	  4.641e-001 	
        31.200	             	  4.641e-001 	
        31.207	  1.043e-002 	             	
        31.264	             	  4.641e-001 	
        31.271	  1.040e-002 	             	
        31.328	             	  4.639e-001 	
        31.335	  1.045e-002 	             	
        31.392	             	  4.639e-001 	
        31.399	  1.048e-002 	             	
        31.456	             	  4.639e-001 	
        31.463	  1.041e-002 	             	
        31.520	             	  4.639e-001 	
        31.527	  1.022e-002 	             	
        31.584	             	  4.640e-001 	
        31.591	  1.035e-002 	             	
        31.655	  1.040e-002 	             	
        31.680	             	  4.639e-001 	
        31.719	  1.040e-002 	             	
        31.744	             	  4.639e-001 	
        31.783	  1.040e-002 	             	
        31.808	             	  4.639e-001 	
        31.847	  1.037e-002 	             	
        31.872	             	  4.639e-001 	
        31.911	  1.044e-002 	             	
        31.936	             	  4.638e-001 	
        32.000	             	  4.639e-001 	
        32.007	  1.036e-002 	             	
        32.064	             	  4.638e-001 	
        32.071	  1.045e-002 	             	
        32.128	             	  4.638e-001 	
        32.135	  1.050e-002 	             	
        32.192	             	  4.638e-001 	
        32.199	  1.050e-002 	             	
        32.256	             	  4.638e-001 	
        32.263	  1.055e-002 	             	
        32.320	             	  4.639e-001 	
        32.327	  1.059e-002 	             	
        32.384	             	  4.639e-001 	
        32.391	  1.059e-002 	             	
        32.455	  1.056e-002 	             	
        32.480	             	  4.639e-001 	
        32.519	  1.054e-002 	             	
        32.544	             	  4.639e-001 	
        32.583	  1.060e-002 	             	
        32.608	             	  4.639e-001 	
        32.647	  1.063e-002 	             	
        32.672	             	  4.639e-001 	
        32.711	  1.058e-002 	             	
        32.736	             	  4.640e-001 	
        32.800	             	  4.641e-001 	
        32.807	  1.070e-002 	             	
        32.864	             	  4.641e-001 	
        32.871	  1.066e-002 	             	
        32.928	             	  4.641e-001 	
        32.935	  1.071e-002 	             	
        32.992	             	  4.640e-001 	
        32.999	  1.068e-002 	             	
        33.056	             	  4.640e-001 	
        33.063	  1.067e-002 	             	
        33.120	             	  4.639e-001 	
        33.127	  1.066e-002 	             	
        33.184	             	  4.638e-001 	
        33.191	  1.072e-002 	             	
        33.255	  1.062e-002 	             	
        33.280	             	  4.639e-001 	
        33.319	  1.067e-002 	             	
        33.344	             	  4.639e-001 	
        33.383	  1.071e-002 	             	
        33.408	             	  4.639e-001 	
        33.447	  1.064e-002 	             	
        33.472	             	  4.639e-001 	
        33.511	  1.064e-002 	             	
        33.536	             	  4.639e-001 	
        33.600	             	  4.640e-001 	
        33.607	  1.065e-002 	             	
        33.664	             	  4.640e-001 	
        33.671	  1.072e-002 	             	
        33.728	             	  4.640e-001 	
        33.735	  1.061e-002 	             	
        33.792	             	  4.641e-001 	
        33.799	  1.074e-002 	             	
        33.856	             	  4.641e-001 	
        33.863	  1.072e-002 	             	
        33.920	             	  4.641e-001 	
        33.927	  1.063e-002 	             	
        33.984	             	  4.640e-001 	
        33.991	  1.062e-002 	             	
        34.055	  1.058e-002 	             	
        34.080	             	  4.640e-001 	
        34.119	  1.058e-002 	             	
        34.144	             	  4.640e-001 	
        34.183	  1.053e-002 	             	
        34.208	             	  4.639e-001 	
        34.247	  1.057e-002 	             	
        34.272	             	  4.639e-001 	
        34.311	  1.052e-002 	             	
        34.336	             	  4.638e-001 	
        34.400	             	  4.637e-001 	
        34.407	  1.051e-002 	             	
        34.464	             	  4.637e-001 	
        34.471	  1.048e-002 	             	
        34.528	             	  4.636e-001 	
        34.535	  1.048e-002 	             	
        34.592	             	  4.635e-001 	
        34.599	  1.047e-002 	             	
        34.656	             	  4.635e-001 	
        34.663	  1.054e-002 	             	
        34.720	             	  4.634e-001 	
        34.727	  1.051e-002 	             	
        34.784	             	  4.634e-001 	
        34.791	  1.050e-002 	             	
        34.855	  1.049e-002 	             	
        34.880	             	  4.635e-001 	
        34.919	  1.050e-002 	             	
        34.944	             	  4.636e-001 	
        34.983	  1.046e-002 	             	
        35.008	             	  4.637e-001 	
        35.047	  1.047e-002 	             	
        35.072	             	  4.637e-001 	
        35.111	  1.029e-002 	             	
        35.136	             	  4.637e-001 	
        35.200	             	  4.637e-001 	
        35.207	  1.037e-002 	             	
        35.264	             	  4.636e-001 	
        35.271	  1.033e-002 	             	
        35.328	             	  4.636e-001 	
        35.335	  1.033e-002 	             	
        35.392	             	  4.635e-001 	
        35.399	  1.036e-002 	             	
        35.456	             	  4.634e-001 	
        35.463	  1.033e-002 	             	
        35.519	             	  4.634e-001 	
        35.527	  1.034e-002 	             	
        35.584	             	  4.634e-001 	
        35.591	  1.031e-002 	             	
        35.655	  1.019e-002 	             	
        35.680	             	  4.634e-001 	
        35.719	  1.038e-002 	             	
        35.744	             	  4.635e-001 	
        35.783	  1.044e-002 	             	
        35.808	             	  4.635e-001 	
        35.847	  1.039e-002 	             	
        35.872	             	  4.635e-001 	
        35.911	  1.034e-002 	             	
        35.936	             	  4.635e-001 	
        36.000	             	  4.635e-001 	
        36.007	  1.040e-002 	             	
        36.064	             	  4.634e-001 	
        36.071	  1.032e-002 	             	
        36.128	             	  4.634e-001 	
        36.135	  1.031e-002 	             	
        36.192	             	  4.634e-001 	
        36.199	  1.044e-002 	             	
        36.256	             	  4.633e-001 	
        36.263	  1.049e-002 	             	
        36.320	             	  4.633e-001 	
        36.327	  1.048e-002 	             	
        36.384	             	  4.634e-001 	
        36.391	  1.048e-002 	             	
        36.455	  1.049e-002 	             	
        36.480	             	  4.635e-001 	
        36.519	  1.050e-002 	             	
        36.543	             	  4.636e-001 	
        36.583	  1.054e-002 	             	
        36.608	             	  4.637e-001 	
        36.647	  1.050e-002 	             	
        36.672	             	  4.637e-001 	
        36.711	  1.058e-002 	             	
        36.736	             	  4.637e-001 	
        36.800	             	  4.637e-001 	
        36.807	  1.060e-002 	             	
        36.864	             	  4.637e-001 	
        36.871	  1.053e-002 	             	
        36.928	             	  4.637e-001 	
        36.935	  1.058e-002 	             	
        36.992	             	  4.636e-001 	
        36.999	  1.060e-002 	             	
        37.056	             	  4.635e-001 	
        37.063	  1.058e-002 	             	
        37.119	             	  4.634e-001 	
        37.127	  1.060e-002 	             	
        37.183	             	  4.634e-001 	
        37.191	  1.061e-002 	             	
        37.255	  1.059e-002 	             	
        37.279	             	  4.633e-001 	
        37.319	  1.073e-002 	             	
        37.343	             	  4.632e-001 	
        37.383	  1.070e-002 	             	
        37.408	             	  4.632e-001 	
        37.447	  1.076e-002 	             	
        37.471	             	  4.634e-001 	
        37.511	  1.065e-002 	             	
        37.535	             	  4.635e-001 	
        37.599	             	  4.636e-001 	
        37.607	  1.070e-002 	             	
        37.663	             	  4.636e-001 	
        37.671	  1.062e-002 	             	
        37.727	             	  4.636e-001 	
        37.735	  1.058e-002 	             	
        37.792	             	  4.637e-001 	
        37.799	  1.064e-002 	             	
        37.855	             	  4.637e-001 	
        37.863	  1.070e-002 	             	
        37.919	             	  4.637e-001 	
        37.927	  1.078e-002 	             	
        37.983	             	  4.637e-001 	
        37.991	  1.070e-002 	             	
        38.055	  1.074e-002 	             	
        38.079	             	  4.636e-001 	
        38.119	  1.075e-002 	             	
        38.144	             	  4.636e-001 	
        38.183	  1.075e-002 	             	
        38.207	             	  4.636e-001 	
        38.247	  1.084e-002 	             	
        38.271	             	  4.636e-001 	
        38.311	  1.078e-002 	             	
        38.335	             	  4.636e-001 	
        38.400	             	  4.636e-001 	
        38.407	  1.073e-002 	             	
        38.463	             	  4.636e-001 	
        38.471	  1.090e-002 	             	
        38.527	             	  4.636e-001 	
        38.536	  1.085e-002 	             	
        38.592	             	  4.636e-001 	
        38.600	  1.077e-002 	             	
        38.656	             	  4.636e-001 	
        38.664	  1.087e-002 	             	
        38.720	             	  4.636e-001 	
        38.728	  1.078e-002 	             	
        38.784	             	  4.635e-001 	
        38.792	  1.093e-002 	             	
        38.856	  1.086e-002 	             	
        38.880	             	  4.635e-001 	
        38.920	  1.086e-002 	             	
        38.944	             	  4.635e-001 	
        38.984	  1.083e-002 	             	
        39.008	             	  4.635e-001 	
        39.048	  1.083e-002 	             	
        39.072	             	  4.636e-001 	
        39.112	  1.081e-002 	             	
        39.136	             	  4.636e-001 	
        39.200	             	  4.637e-001 	
        39.208	  1.080e-002 	             	
        39.264	             	  4.637e-001 	
        39.272	  1.084e-002 	             	
        39.328	             	  4.637e-001 	
        39.336	  1.071e-002 	             	
        39.392	             	  4.637e-001 	
        39.400	  1.071e-002 	             	
        39.456	             	  4.638e-001 	
        39.464	  1.059e-002 	             	
        39.520	             	  4.637e-001 	
        39.528	  1.061e-002 	             	
        39.584	             	  4.637e-001 	
        39.592	  1.058e-002 	             	
        39.656	  1.059e-002 	             	
        39.680	             	  4.637e-001 	
        39.720	  1.061e-002 	             	
        39.744	             	  4.637e-001 	
        39.784	  1.066e-002 	             	
        39.808	             	  4.637e-001 	
        39.848	  1.068e-002 	             	
        39.872	             	  4.637e-001 	
        39.912	  1.058e-002 	             	
        39.936	             	  4.638e-001 	
        40.000	             	  4.638e-001 	
        40.008	  1.061e-002 	             	
        40.064	             	  4.638e-001 	
        40.071	  1.060e-002 	             	
        40.128	             	  4.639e-001 	
        40.135	  1.048e-002 	             	
        40.192	             	  4.640e-001 	
        40.200	  1.045e-002 	             	
        40.256	             	  4.641e-001 	
        40.264	  1.048e-002 	             	
        40.320	             	  4.641e-001 	
        40.328	  1.047e-002 	             	
        40.384	             	  4.641e-001 	
        40.391	  1.042e-002 	             	
        40.456	  1.040e-002 	             	
        40.480	             	  4.641e-001 	
        40.520	  1.039e-002 	             	
        40.544	             	  4.642e-001 	
        40.584	  1.040e-002 	             	
        40.608	             	  4.642e-001 	
        40.647	  1.042e-002 	             	
        40.672	             	  4.642e-001 	
        40.712	  1.046e-002 	             	
        40.736	             	  4.642e-001 	
        40.800	             	  4.642e-001 	
        40.807	  1.046e-002 	             	
        40.864	             	  4.642e-001 	
        40.872	  1.039e-002 	             	
        40.928	             	  4.643e-001 	
        40.935	  1.037e-002 	             	
        40.992	             	  4.643e-001 	
        41.000	  1.049e-002 	             	
        41.056	             	  4.643e-001 	
        41.063	  1.029e-002 	             	
        41.120	             	  4.642e-001 	
        41.128	  1.041e-002 	             	
        41.184	             	  4.642e-001 	
        41.191	  1.046e-002 	             	
        41.255	  1.048e-002 	             	
        41.280	             	  4.642e-001 	
        41.320	  1.047e-002 	             	
        41.344	             	  4.642e-001 	
        41.383	  1.056e-002 	             	
        41.408	             	  4.642e-001 	
        41.447	  1.057e-002 	             	
        41.472	             	  4.642e-001 	
        41.511	  1.061e-002 	             	
        41.536	             	  4.642e-001 	
        41.576	  1.061e-002 	             	
        41.600	             	  4.642e-001 	
        41.664	             	  4.642e-001 	
        41.671	  1.053e-002 	             	
        41.728	             	  4.642e-001 	
        41.735	  1.072e-002 	             	
        41.792	             	  4.642e-001 	
        41.799	  1.067e-002 	             	
        41.856	             	  4.642e-001 	
        41.863	  1.072e-002 	             	
        41.920	             	  4.642e-001 	
        41.927	  1.062e-002 	             	
        41.984	             	  4.641e-001 	
        41.991	  1.074e-002 	             	
        42.055	  1.078e-002 	             	
        42.081	             	  4.641e-001 	
        42.119	  1.079e-002 	             	
        42.144	             	  4.640e-001 	
        42.183	  1.077e-002 	             	
        42.208	             	  4.640e-001 	
        42.247	  1.080e-002 	             	
        42.272	             	  4.640e-001 	
        42.311	  1.078e-002 	             	
        42.336	             	  4.640e-001 	
        42.375	  1.087e-002 	             	
        42.400	             	  4.640e-001 	
        42.464	             	  4.639e-001 	
        42.471	  1.078e-002 	             	
        42.528	             	  4.639e-001 	
        42.535	  1.084e-002 	             	
        42.592	             	  4.639e-001 	
        42.599	  1.067e-002 	             	
        42.656	             	  4.640e-001 	
        42.663	  1.078e-002 	             	
        42.720	             	  4.640e-001 	
        42.727	  1.077e-002 	             	
        42.784	             	  4.641e-001 	
        42.791	  1.075e-002 	             	
        42.855	  1.079e-002 	             	
        42.880	             	  4.641e-001 	
        42.919	  1.082e-002 	             	
        42.944	             	  4.642e-001 	
        42.983	  1.082e-002 	             	
        43.008	             	  4.643e-001 	
        43.047	  1.070e-002 	             	
        43.072	             	  4.644e-001 	
        43.111	  1.089e-002 	             	
        43.136	             	  4.646e-001 	
        43.176	  1.083e-002 	             	
        43.200	             	  4.646e-001 	
        43.264	             	  4.646e-001 	
        43.271	  1.073e-002 	             	
        43.328	             	  4.645e-001 	
        43.335	  1.084e-002 	             	
        43.392	             	  4.645e-001 	
        43.399	  1.083e-002 	             	
        43.456	             	  4.645e-001 	
        43.463	  1.073e-002 	             	
        43.520	             	  4.645e-001 	
        43.527	  1.072e-002 	             	
        43.584	             	  4.645e-001 	
        43.591	  1.086e-002 	             	
        43.648	             	  4.645e-001 	
        43.655	  1.080e-002 	             	
        43.719	  1.079e-002 	             	
        43.744	             	  4.646e-001 	
        43.783	  1.079e-002 	             	
        43.808	             	  4.646e-001 	
        43.847	  1.082e-002 	             	
        43.872	             	  4.645e-001 	
        43.911	  1.084e-002 	             	
        43.936	             	  4.645e-001 	
        43.975	  1.081e-002 	             	
        44.000	             	  4.645e-001 	
        44.064	             	  4.645e-001 	
        44.071	  1.079e-002 	             	
        44.128	             	  4.646e-001 	
        44.135	  1.068e-002 	             	
        44.192	             	  4.646e-001 	
        44.199	  1.077e-002 	             	
        44.256	             	  4.645e-001 	
        44.263	  1.079e-002 	             	
        44.320	             	  4.645e-001 	
        44.327	  1.079e-002 	             	
        44.384	             	  4.645e-001 	
        44.391	  1.075e-002 	             	
        44.448	             	  4.646e-001 	
        44.455	  1.074e-002 	             	
        44.519	  1.075e-002 	             	
        44.544	             	  4.646e-001 	
        44.583	  1.070e-002 	             	
        44.608	             	  4.646e-001 	
        44.647	  1.068e-002 	             	
        44.672	             	  4.646e-001 	
        44.711	  1.064e-002 	             	
        44.736	             	  4.646e-001 	
        44.775	  1.064e-002 	             	
        44.800	             	  4.646e-001 	
        44.864	             	  4.645e-001 	
        44.871	  1.063e-002 	             	
        44.928	             	  4.646e-001 	
        44.935	  1.060e-002 	             	
        44.992	             	  4.646e-001 	
        44.999	  1.059e-002 	             	
        45.056	             	  4.647e-001 	
        45.063	  1.055e-002 	             	
        45.120	             	  4.647e-001 	
        45.127	  1.052e-002 	             	
        45.184	             	  4.647e-001 	
        45.191	  1.042e-002 	             	
        45.248	             	  4.647e-001 	
        45.255	  1.039e-002 	             	
        45.319	  1.040e-002 	             	
        45.344	             	  4.647e-001 	
        45.383	  1.044e-002 	             	
        45.408	             	  4.646e-001 	
        45.447	  1.034e-002 	             	
        45.472	             	  4.645e-001 	
        45.511	  1.036e-002 	             	
        45.536	             	  4.645e-001 	
        45.575	  1.034e-002 	             	
        45.600	             	  4.645e-001 	
        45.664	             	  4.644e-001 	
        45.671	  1.027e-002 	             	
        45.728	             	  4.644e-001 	
        45.735	  1.021e-002 	             	
        45.792	             	  4.644e-001 	
        45.799	  1.024e-002 	             	
        45.856	             	  4.644e-001 	
        45.863	  1.020e-002 	             	
        45.920	             	  4.644e-001 	
        45.927	  1.013e-002 	             	
        45.984	             	  4.643e-001 	
        45.991	  1.025e-002 	             	
        46.048	             	  4.642e-001 	
        46.055	  1.040e-002 	             	
        46.119	  1.040e-002 	             	
        46.144	             	  4.641e-001 	
        46.183	  1.034e-002 	             	
        46.208	             	  4.642e-001 	
        46.247	  1.033e-002 	             	
        46.272	             	  4.643e-001 	
        46.311	  1.033e-002 	             	
        46.336	             	  4.644e-001 	
        46.375	  1.032e-002 	             	
        46.400	             	  4.645e-001 	
        46.464	             	  4.646e-001 	
        46.471	  1.027e-002 	             	
        46.528	             	  4.647e-001 	
        46.535	  1.028e-002 	             	
        46.592	             	  4.648e-001 	
        46.599	  1.020e-002 	             	
        46.656	             	  4.647e-001 	
        46.663	  1.017e-002 	             	
        46.720	             	  4.646e-001 	
        46.727	  1.023e-002 	             	
        46.784	             	  4.646e-001 	
        46.791	  1.027e-002 	             	
        46.848	             	  4.645e-001 	
        46.855	  1.029e-002 	             	
        46.919	  1.030e-002 	             	
        46.944	             	  4.644e-001 	
        46.983	  1.033e-002 	             	
        47.008	             	  4.644e-001 	
        47.047	  1.031e-002 	             	
        47.072	             	  4.643e-001 	
        47.111	  1.036e-002 	             	
        47.136	             	  4.642e-001 	
        47.175	  1.041e-002 	             	
        47.200	             	  4.641e-001 	
        47.264	             	  4.640e-001 	
        47.271	  1.056e-002 	             	
        47.328	             	  4.641e-001 	
        47.335	  1.063e-002 	             	
        47.392	             	  4.642e-001 	
        47.399	  1.074e-002 	             	
        47.456	             	  4.644e-001 	
        47.463	  1.080e-002 	             	
        47.520	             	  4.645e-001 	
        47.527	  1.070e-002 	             	
        47.584	             	  4.646e-001 	
        47.591	  1.073e-002 	             	
        47.648	             	  4.647e-001 	
        47.655	  1.083e-002 	             	
        47.719	  1.070e-002 	             	
        47.744	             	  4.648e-001 	
        47.783	  1.074e-002 	             	
        47.808	             	  4.649e-001 	
        47.847	  1.067e-002 	             	
        47.872	             	  4.649e-001 	
        47.911	  1.069e-002 	             	
        47.936	             	  4.649e-001 	
        47.975	  1.061e-002 	             	
        48.000	             	  4.648e-001 	
        48.064	             	  4.647e-001 	
        48.071	  1.060e-002 	             	
        48.128	             	  4.646e-001 	
        48.135	  1.062e-002 	             	
        48.192	             	  4.645e-001 	
        48.199	  1.059e-002 	             	
        48.256	             	  4.644e-001 	
        48.263	  1.059e-002 	             	
        48.320	             	  4.643e-001 	
        48.327	  1.058e-002 	             	
        48.384	             	  4.642e-001 	
        48.391	  1.064e-002 	             	
        48.448	             	  4.643e-001 	
        48.455	  1.065e-002 	             	
        48.519	  1.056e-002 	             	
        48.544	             	  4.643e-001 	
        48.583	  1.060e-002 	             	
        48.608	             	  4.643e-001 	
        48.647	  1.057e-002 	             	
        48.672	             	  4.643e-001 	
        48.711	  1.057e-002 	             	
        48.736	             	  4.643e-001 	
        48.775	  1.055e-002 	             	
        48.800	             	  4.643e-001 	
        48.864	             	  4.643e-001 	
        48.871	  1.047e-002 	             	
        48.928	             	  4.643e-001 	
        48.935	  1.057e-002 	             	
        48.992	             	  4.643e-001 	
        48.999	  1.051e-002 	             	
        49.056	             	  4.642e-001 	
        49.063	  1.044e-002 	             	
        49.120	             	  4.642e-001 	
        49.127	  1.050e-002 	             	
        49.184	             	  4.641e-001 	
        49.191	  1.038e-002 	             	
        49.248	             	  4.641e-001 	
        49.255	  1.035e-002 	             	
        49.319	  1.041e-002 	             	
        49.344	             	  4.641e-001 	
        49.383	  1.041e-002 	             	
        49.408	             	  4.640e-001 	
        49.447	  1.051e-002 	             	
        49.472	             	  4.640e-001 	
        49.511	  1.050e-002 	             	
        49.536	             	  4.639e-001 	
        49.575	  1.043e-002 	             	
        49.600	             	  4.639e-001 	
        49.664	             	  4.639e-001 	
        49.671	  1.026e-002 	             	
        49.728	             	  4.639e-001 	
        49.735	  1.042e-002 	             	
        49.792	             	  4.639e-001 	
        49.799	  1.038e-002 	             	
        49.856	             	  4.638e-001 	
        49.863	  1.040e-002 	             	
        49.920	             	  4.637e-001 	
        49.927	  1.043e-002 	             	
        49.984	             	  4.636e-001 	
        49.991	  1.038e-002 	             	
        50.048	             	  4.636e-001 	
        50.055	  1.034e-002 	             	
        50.119	  1.030e-002 	             	
        50.144	             	  4.636e-001 	
        50.183	  1.033e-002 	             	
        50.208	             	  4.636e-001 	
        50.247	  1.033e-002 	             	
        50.272	             	  4.636e-001 	
        50.311	  1.027e-002 	             	
        50.336	             	  4.637e-001 	
        50.375	  1.021e-002 	             	
        50.400	             	  4.637e-001 	
        50.464	             	  4.637e-001 	
        50.471	  1.024e-002 	             	
        50.528	             	  4.636e-001 	
        50.535	  1.020e-002 	             	
        50.592	             	  4.635e-001 	
        50.599	  1.017e-002 	             	
        50.656	             	  4.635e-001 	
        50.663	  1.009e-002 	             	
        50.720	             	  4.634e-001 	
        50.727	  1.012e-002 	             	
        50.784	             	  4.633e-001 	
        50.791	  1.007e-002 	             	
        50.848	             	  4.633e-001 	
        50.855	  1.010e-002 	             	
        50.919	  1.003e-002 	             	
        50.944	             	  4.634e-001 	
        50.983	  9.980e-003 	             	
        51.008	             	  4.634e-001 	
        51.047	  9.970e-003 	             	
        51.072	             	  4.634e-001 	
        51.111	  1.005e-002 	             	
        51.136	             	  4.634e-001 	
        51.175	  9.890e-003 	             	
        51.200	             	  4.635e-001 	
        51.264	             	  4.635e-001 	
        51.271	  9.920e-003 	             	
        51.328	             	  4.635e-001 	
        51.335	  9.810e-003 	             	
        51.392	             	  4.636e-001 	
        51.399	  9.940e-003 	             	
        51.456	             	  4.635e-001 	
        51.463	  9.890e-003 	             	
        51.520	             	  4.634e-001 	
        51.527	  9.870e-003 	             	
        51.584	             	  4.634e-001 	
        51.591	  9.910e-003 	             	
        51.648	             	  4.633e-001 	
        51.655	  9.980e-003 	             	
        51.719	  1.002e-002 	             	
        51.744	             	  4.633e-001 	
        51.783	  1.011e-002 	             	
        51.808	             	  4.633e-001 	
        51.847	  1.011e-002 	             	
        51.872	             	  4.634e-001 	
        51.911	  1.014e-002 	             	
        51.936	             	  4.633e-001 	
        51.975	  1.020e-002 	             	
        52.000	             	  4.634e-001 	
        52.064	             	  4.634e-001 	
        52.071	  1.021e-002 	             	
        52.128	             	  4.635e-001 	
        52.135	  1.027e-002 	             	
        52.192	             	  4.635e-001 	
        52.199	  1.023e-002 	             	
        52.256	             	  4.635e-001 	
        52.263	  1.025e-002 	             	
        52.320	             	  4.635e-001 	
        52.327	  1.015e-002 	             	
        52.384	             	  4.635e-001 	
        52.391	  1.036e-002 	             	
        52.448	             	  4.636e-001 	
        52.455	  1.042e-002 	             	
        52.519	  1.035e-002 	             	
        52.544	             	  4.637e-001 	
        52.583	  1.040e-002 	             	
        52.608	             	  4.638e-001 	
        52.647	  1.039e-002 	             	
        52.672	             	  4.638e-001 	
        52.711	  1.034e-002 	             	
        52.736	             	  4.638e-001 	
        52.775	  1.027e-002 	             	
        52.800	             	  4.638e-001 	
        52.864	             	  4.638e-001 	
        52.871	  1.023e-002 	             	
        52.928	             	  4.638e-001 	
        52.935	  1.017e-002 	             	
        52.992	             	  4.638e-001 	
        52.999	  1.019e-002 	             	
        53.056	             	  4.638e-001 	
        53.063	  1.024e-002 	             	
        53.120	             	  4.639e-001 	
        53.127	  1.020e-002 	             	
        53.184	             	  4.639e-001 	
        53.191	  1.012e-002 	             	
        53.248	             	  4.639e-001 	
        53.255	  1.013e-002 	             	
        53.319	  1.019e-002 	             	
        53.344	             	  4.639e-001 	
        53.383	  1.017e-002 	             	
        53.408	             	  4.638e-001 	
        53.447	  1.014e-002 	             	
        53.471	             	  4.638e-001 	
        53.511	  1.010e-002 	             	
        53.536	             	  4.639e-001 	
        53.575	  1.006e-002 	             	
        53.600	             	  4.639e-001 	
        53.664	             	  4.640e-001 	
        53.671	  1.006e-002 	             	
        53.728	             	  4.640e-001 	
        53.735	  1.019e-002 	             	
        53.792	             	  4.640e-001 	
        53.799	  1.019e-002 	             	
        53.856	             	  4.640e-001 	
        53.863	  1.021e-002 	             	
        53.920	             	  4.640e-001 	
        53.927	  1.029e-002 	             	
        53.983	             	  4.639e-001 	
        53.991	  1.037e-002 	             	
        54.048	             	  4.638e-001 	
        54.055	  1.032e-002 	             	
        54.119	  1.023e-002 	             	
        54.143	             	  4.638e-001 	
        54.183	  1.017e-002 	             	
        54.207	             	  4.638e-001 	
        54.247	  1.019e-002 	             	
        54.271	             	  4.638e-001 	
        54.311	  1.022e-002 	             	
        54.336	             	  4.639e-001 	
        54.375	  1.004e-002 	             	
        54.400	             	  4.639e-001 	
        54.464	             	  4.640e-001 	
        54.471	  1.006e-002 	             	
        54.527	             	  4.641e-001 	
        54.535	  1.002e-002 	             	
        54.591	             	  4.641e-001 	
        54.599	  9.920e-003 	             	
        54.655	             	  4.642e-001 	
        54.663	  9.950e-003 	             	
        54.720	             	  4.643e-001 	
        54.727	  9.670e-003 	             	
        54.784	             	  4.644e-001 	
        54.791	  9.500e-003 	             	
        54.847	             	  4.644e-001 	
        54.855	  9.480e-003 	             	
        54.919	  9.320e-003 	             	
        54.943	             	  4.644e-001 	
        54.983	  9.280e-003 	             	
        55.007	             	  4.644e-001 	
        55.047	  9.360e-003 	             	
        55.071	             	  4.643e-001 	
        55.111	  9.530e-003 	             	
        55.135	             	  4.643e-001 	
        55.175	  9.760e-003 	             	
        55.199	             	  4.643e-001 	
        55.239	  9.790e-003 	             	
        55.263	             	  4.643e-001 	
        55.327	             	  4.643e-001 	
        55.335	  9.830e-003 	             	
        55.391	             	  4.643e-001 	
        55.399	  9.930e-003 	             	
        55.455	             	  4.643e-001 	
        55.463	  1.005e-002 	             	
        55.519	             	  4.643e-001 	
        55.527	  9.970e-003 	             	
        55.584	             	  4.644e-001 	
        55.591	  1.002e-002 	             	
        55.647	             	  4.645e-001 	
        55.655	  1.021e-002 	             	
        55.719	  1.051e-002 	             	
        55.743	             	  4.645e-001 	
        55.783	  1.077e-002 	             	
        55.807	             	  4.646e-001 	
        55.847	  1.071e-002 	             	
        55.871	             	  4.645e-001 	
        55.911	  1.074e-002 	             	
        55.935	             	  4.645e-001 	
        55.975	  1.046e-002 	             	
        55.999	             	  4.644e-001 	
        56.040	  1.026e-002 	             	
        56.064	             	  4.644e-001 	
        56.129	             	  4.644e-001 	
        56.136	  9.750e-003 	             	
        56.192	             	  4.644e-001 	
        56.200	  9.790e-003 	             	
        56.256	             	  4.644e-001 	
        56.264	  9.830e-003 	             	
        56.320	             	  4.643e-001 	
        56.328	  9.630e-003 	             	
        56.385	             	  4.643e-001 	
        56.392	  9.690e-003 	             	
        56.448	             	  4.642e-001 	
        56.456	  9.980e-003 	             	
        56.512	             	  4.642e-001 	
        56.520	  1.034e-002 	             	
        56.584	  1.037e-002 	             	
        56.608	             	  4.641e-001 	
        56.648	  1.018e-002 	             	
        56.672	             	  4.641e-001 	
        56.712	  1.032e-002 	             	
        56.736	             	  4.641e-001 	
        56.776	  9.860e-003 	             	
        56.800	             	  4.641e-001 	
        56.840	  9.530e-003 	             	
        56.864	             	  4.642e-001 	
        56.928	             	  4.642e-001 	
        56.936	  9.830e-003 	             	
        56.992	             	  4.642e-001 	
        57.000	  9.880e-003 	             	
        57.056	             	  4.642e-001 	
        57.064	  9.190e-003 	             	
        57.120	             	  4.642e-001 	
        57.128	  9.840e-003 	             	
        57.184	             	  4.641e-001 	
        57.192	  9.810e-003 	             	
        57.248	             	  4.641e-001 	
        57.256	  1.001e-002 	             	
        57.312	             	  4.641e-001 	
        57.320	  9.820e-003 	             	
        57.384	  9.760e-003 	             	
        57.408	             	  4.642e-001 	
        57.447	  1.041e-002 	             	
        57.472	             	  4.642e-001 	
        57.512	  1.240e-003 	             	
        57.536	             	  4.642e-001 	
        57.576	  2.640e-003 	             	
        57.600	             	  4.642e-001 	
        57.639	  9.100e-004 	             	
        57.664	             	  4.642e-001 	
        57.728	             	  4.643e-001 	
        57.736	  1.080e-002 	             	
        57.792	             	  4.643e-001 	
        57.800	  1.074e-002 	             	
        57.856	             	  4.642e-001 	
        57.863	  1.082e-002 	             	
        57.920	             	  4.641e-001 	
        57.927	  1.082e-002 	             	
        57.984	             	  4.640e-001 	
        57.992	  1.082e-002 	             	
        58.048	             	  4.639e-001 	
        58.056	  1.076e-002 	             	
        58.112	             	  4.639e-001 	
        58.119	  1.091e-002 	             	
        58.183	  1.089e-002 	             	
        58.208	             	  4.640e-001 	
        58.248	  1.091e-002 	             	
        58.272	             	  4.640e-001 	
        58.312	  1.084e-002 	             	
        58.336	             	  4.640e-001 	
        58.376	  1.082e-002 	             	
        58.400	             	  4.640e-001 	
        58.440	  1.087e-002 	             	
        58.464	             	  4.641e-001 	
        58.528	             	  4.641e-001 	
        58.536	  1.094e-002 	             	
        58.592	             	  4.641e-001 	
        58.600	  1.088e-002 	             	
        58.656	             	  4.641e-001 	
        58.663	  1.081e-002 	             	
        58.720	             	  4.640e-001 	
        58.728	  1.082e-002 	             	
        58.784	             	  4.640e-001 	
        58.791	  1.092e-002 	             	
        58.848	             	  4.639e-001 	
        58.856	  1.094e-002 	             	
        58.912	             	  4.638e-001 	
        58.920	  1.095e-002 	             	
        58.983	  1.096e-002 	             	
        59.008	             	  4.638e-001 	
        59.047	  1.086e-002 	             	
        59.072	             	  4.637e-001 	
        59.111	  1.092e-002 	             	
        59.136	             	  4.637e-001 	
        59.175	  1.093e-002 	             	
        59.200	             	  4.636e-001 	
        59.239	  1.092e-002 	             	
        59.264	             	  4.636e-001 	
        59.328	             	  4.636e-001 	
        59.335	  1.088e-002 	             	
        59.392	             	  4.635e-001 	
        59.400	  1.092e-002 	             	
        59.456	             	  4.635e-001 	
        59.463	  1.086e-002 	             	
        59.520	             	  4.635e-001 	
        59.527	  1.097e-002 	             	
        59.584	             	  4.634e-001 	
        59.591	  1.092e-002 	             	
        59.648	             	  4.634e-001 	
        59.655	  1.091e-002 	             	
        59.712	             	  4.633e-001 	
        59.719	  1.084e-002 	             	
        59.783	  1.083e-002 	             	
        59.808	             	  4.633e-001 	
        59.847	  1.090e-002 	             	
        59.872	             	  4.633e-001 	
        59.911	  1.083e-002 	             	
        59.936	             	  4.632e-001 	
        59.975	  1.089e-002 	             	
        60.000	             	  4.631e-001 	
        60.039	  1.090e-002 	             	
        60.064	             	  4.631e-001 	
        60.128	             	  4.630e-001 	
        60.135	  1.094e-002 	             	
        60.192	             	  4.630e-001 	
        60.199	  1.087e-002 	             	
        60.256	             	  4.631e-001 	
        60.263	  1.090e-002 	             	
        60.320	             	  4.631e-001 	
        60.327	  1.085e-002 	             	
        60.384	             	  4.631e-001 	
        60.391	  1.085e-002 	             	
        60.448	             	  4.631e-001 	
        60.455	  1.090e-002 	             	
        60.512	             	  4.631e-001 	
        60.519	  1.090e-002 	             	
        60.584	  1.089e-002 	             	
        60.608	             	  4.630e-001 	
        60.647	  1.083e-002 	             	
        60.672	             	  4.630e-001 	
        60.711	  1.085e-002 	             	
        60.736	             	  4.630e-001 	
        60.775	  1.084e-002 	             	
        60.800	             	  4.629e-001 	
        60.839	  1.091e-002 	             	
        60.864	             	  4.629e-001 	
        60.928	             	  4.628e-001 	
        60.936	  1.088e-002 	             	
        60.992	             	  4.628e-001 	
        60.999	  1.084e-002 	             	
        61.056	             	  4.627e-001 	
        61.063	  1.081e-002 	             	
        61.120	             	  4.627e-001 	
        61.127	  1.075e-002 	             	
        61.184	             	  4.626e-001 	
        61.192	  1.087e-002 	             	
        61.248	             	  4.626e-001 	
        61.255	  1.088e-002 	             	
        61.312	             	  4.626e-001 	
        61.319	  1.092e-002 	             	
        61.383	  1.086e-002 	             	
        61.408	             	  4.626e-001 	
        61.447	  1.083e-002 	             	
        61.472	             	  4.626e-001 	
        61.511	  1.088e-002 	             	
        61.536	             	  4.627e-001 	
        61.575	  1.087e-002 	             	
        61.600	             	  4.628e-001 	
        61.639	  1.093e-002 	             	
        61.664	             	  4.629e-001 	
        61.728	             	  4.629e-001 	
        61.735	  1.105e-002 	             	
        61.792	             	  4.629e-001 	
        61.799	  1.091e-002 	             	
        61.856	             	  4.630e-001 	
        61.863	  1.092e-002 	             	
        61.920	             	  4.630e-001 	
        61.927	  1.095e-002 	             	
        61.984	             	  4.629e-001 	
        61.991	  1.097e-002 	             	
        62.048	             	  4.629e-001 	
        62.055	  1.096e-002 	             	
        62.112	             	  4.629e-001 	
        62.119	  1.094e-002 	             	
        62.183	  1.095e-002 	             	
        62.208	             	  4.629e-001 	
        62.247	  1.088e-002 	             	
        62.272	             	  4.629e-001 	
        62.311	  1.090e-002 	             	
        62.336	             	  4.629e-001 	
        62.375	  1.090e-002 	             	
        62.400	             	  4.628e-001 	
        62.439	  1.084e-002 	             	
        62.464	             	  4.628e-001 	
        62.528	             	  4.627e-001 	
        62.535	  1.095e-002 	             	
        62.592	             	  4.627e-001 	
        62.599	  1.093e-002 	             	
        62.656	             	  4.627e-001 	
        62.663	  1.093e-002 	             	
        62.720	             	  4.627e-001 	
        62.727	  1.092e-002 	             	
        62.784	             	  4.628e-001 	
        62.791	  1.101e-002 	             	
        62.848	             	  4.628e-001 	
        62.855	  1.088e-002 	             	
        62.912	             	  4.628e-001 	
        62.919	  1.093e-002 	             	
        62.983	  1.088e-002 	             	
        63.008	             	  4.629e-001 	
        63.047	  1.090e-002 	             	
        63.072	             	  4.630e-001 	
        63.111	  1.087e-002 	             	
        63.136	             	  4.630e-001 	
        63.175	  1.089e-002 	             	
        63.200	             	  4.631e-001 	
        63.239	  1.092e-002 	             	
        63.264	             	  4.631e-001 	
        63.328	             	  4.630e-001 	
        63.335	  1.086e-002 	             	
        63.392	             	  4.629e-001 	
        63.399	  1.086e-002 	             	
        63.456	             	  4.628e-001 	
        63.463	  1.092e-002 	             	
        63.520	             	  4.627e-001 	
        63.527	  1.088e-002 	             	
        63.584	             	  4.627e-001 	
        63.591	  1.098e-002 	             	
        63.648	             	  4.626e-001 	
        63.655	  1.097e-002 	             	
        63.712	             	  4.626e-001 	
        63.719	  1.086e-002 	             	
        63.783	  1.096e-002 	             	
        63.808	             	  4.627e-001 	
        63.847	  1.091e-002 	             	
        63.872	             	  4.627e-001 	
        63.911	  1.097e-002 	             	
        63.936	             	  4.628e-001 	
        63.975	  1.096e-002 	             	
        64.001	             	  4.627e-001 	
        64.039	  1.096e-002 	             	
        64.064	             	  4.627e-001 	
        64.128	             	  4.627e-001 	
        64.135	  1.092e-002 	             	
        64.192	             	  4.627e-001 	
        64.199	  1.087e-002 	             	
        64.256	             	  4.627e-001 	
        64.263	  1.072e-002 	             	
        64.320	             	  4.627e-001 	
        64.327	  1.084e-002 	             	
        64.384	             	  4.626e-001 	
        64.391	  1.082e-002 	             	
        64.448	             	  4.626e-001 	
        64.455	  1.088e-002 	             	
        64.512	             	  4.625e-001 	
        64.519	  1.097e-002 	             	
        64.583	  1.088e-002 	             	
        64.608	             	  4.624e-001 	
        64.647	  1.096e-002 	             	
        64.672	             	  4.624e-001 	
        64.711	  1.087e-002 	             	
        64.736	             	  4.625e-001 	
        64.775	  1.093e-002 	             	
        64.800	             	  4.626e-001 	
        64.839	  1.097e-002 	             	
        64.864	             	  4.626e-001 	
        64.928	             	  4.626e-001 	
        64.935	  1.095e-002 	             	
        64.992	             	  4.627e-001 	
        64.999	  1.095e-002 	             	
        65.056	             	  4.628e-001 	
        65.063	  1.094e-002 	             	
        65.120	             	  4.628e-001 	
        65.127	  1.088e-002 	             	
        65.184	             	  4.627e-001 	
        65.191	  1.097e-002 	             	
        65.248	             	  4.627e-001 	
        65.255	  1.095e-002 	             	
        65.312	             	  4.626e-001 	
        65.319	  1.093e-002 	             	
        65.383	  1.086e-002 	             	
        65.408	             	  4.626e-001 	
        65.447	  1.089e-002 	             	
        65.472	             	  4.626e-001 	
        65.511	  1.082e-002 	             	
        65.536	             	  4.626e-001 	
        65.575	  1.086e-002 	             	
        65.600	             	  4.626e-001 	
        65.639	  1.097e-002 	             	
        65.664	             	  4.627e-001 	
        65.728	             	  4.626e-001 	
        65.735	  1.094e-002 	             	
        65.792	             	  4.626e-001 	
        65.799	  1.092e-002 	             	
        65.856	             	  4.627e-001 	
        65.863	  1.093e-002 	             	
        65.920	             	  4.627e-001 	
        65.927	  1.093e-002 	             	
        65.984	             	  4.627e-001 	
        65.991	  1.093e-002 	             	
        66.048	             	  4.627e-001 	
        66.055	  1.090e-002 	             	
        66.112	             	  4.627e-001 	
        66.119	  1.094e-002 	             	
        66.183	  1.092e-002 	             	
        66.208	             	  4.627e-001 	
        66.247	  1.096e-002 	             	
        66.272	             	  4.627e-001 	
        66.311	  1.094e-002 	             	
        66.336	             	  4.627e-001 	
        66.375	  1.090e-002 	             	
        66.400	             	  4.627e-001 	
        66.439	  1.092e-002 	             	
        66.464	             	  4.628e-001 	
        66.528	             	  4.628e-001 	
        66.535	  1.088e-002 	             	
        66.592	             	  4.628e-001 	
        66.599	  1.089e-002 	             	
        66.656	             	  4.628e-001 	
        66.663	  1.088e-002 	             	
        66.720	             	  4.628e-001 	
        66.727	  1.093e-002 	             	
        66.784	             	  4.628e-001 	
        66.791	  1.098e-002 	             	
        66.848	             	  4.628e-001 	
        66.855	  1.094e-002 	             	
        66.912	             	  4.627e-001 	
        66.919	  1.089e-002 	             	
        66.983	  1.094e-002 	             	
        67.008	             	  4.627e-001 	
        67.047	  1.097e-002 	             	
        67.072	             	  4.626e-001 	
        67.111	  1.089e-002 	             	
        67.136	             	  4.626e-001 	
        67.175	  1.088e-002 	             	
        67.200	             	  4.625e-001 	
        67.239	  1.093e-002 	             	
        67.264	             	  4.625e-001 	
        67.328	             	  4.625e-001 	
        67.335	  1.086e-002 	             	
        67.392	             	  4.625e-001 	
        67.399	  1.094e-002 	             	
        67.456	             	  4.625e-001 	
        67.463	  1.088e-002 	             	
        67.520	             	  4.625e-001 	
        67.527	  1.089e-002 	             	
        67.584	             	  4.625e-001 	
        67.591	  1.088e-002 	             	
        67.648	             	  4.625e-001 	
        67.655	  1.093e-002 	             	
        67.712	             	  4.625e-001 	
        67.719	  1.091e-002 	             	
        67.783	  1.094e-002 	             	
        67.808	             	  4.626e-001 	
