;PC Software:StarLab Version 2.10 Build 25
;Logged:22/09/2022 at 15:13:42
;File Version:3
;Graph Type:Line
;Notes:                                                            

;Channel A:Nova II Photodiode PD300-3W-v1 (s/n:763106)  NN2.52 (s/n:767396)
;Channel B:Vega Thermopile 10A-V1.1 (s/n:693380)  VG2.44 (s/n:858327)

;Channel A:Details
;Name:PD300-3W-v1
;Graph Color:RGB(0,102,255)
;Units:W
;Settings:Measuring:Power
;Settings:Wavelength:1064
;Settings:Range:AUTO
;Settings:Filter:IN

;Channel B:Details
;Name:10A-V1.1
;Graph Color:RGB(154,0,0)
;Units:W
;Settings:Measuring:Power
;Settings:Laser:.8-6
;Settings:Range:AUTO
;--------------------


;First Pulse Arrived : 22/09/2022 at 15:13:42.856000
  Timestamp   	  Channel A  	  Channel B  	
         0.000	  1.150e-001 	             	
         0.025	             	  4.201e-001 	
         0.096	  1.161e-001 	             	
         0.121	             	  4.206e-001 	
         0.160	  1.158e-001 	             	
         0.185	             	  4.210e-001 	
         0.224	  1.157e-001 	             	
         0.249	             	  4.215e-001 	
         0.288	  1.163e-001 	             	
         0.313	             	  4.218e-001 	
         0.352	  1.158e-001 	             	
         0.377	             	  4.221e-001 	
         0.416	  1.152e-001 	             	
         0.441	             	  4.224e-001 	
         0.480	  1.161e-001 	             	
         0.505	             	  4.227e-001 	
         0.544	  1.167e-001 	             	
         0.569	             	  4.230e-001 	
         0.608	  1.153e-001 	             	
         0.633	             	  4.233e-001 	
         0.672	  1.160e-001 	             	
         0.697	             	  4.237e-001 	
         0.736	  1.151e-001 	             	
         0.761	             	  4.241e-001 	
         0.800	  1.146e-001 	             	
         0.825	             	  4.245e-001 	
         0.896	  1.148e-001 	             	
         0.921	             	  4.248e-001 	
         0.960	  1.156e-001 	             	
         0.985	             	  4.251e-001 	
         1.024	  1.151e-001 	             	
         1.049	             	  4.254e-001 	
         1.088	  1.157e-001 	             	
         1.113	             	  4.255e-001 	
         1.152	  1.154e-001 	             	
         1.177	             	  4.256e-001 	
         1.216	  1.153e-001 	             	
         1.241	             	  4.257e-001 	
         1.280	  1.153e-001 	             	
         1.305	             	  4.259e-001 	
         1.344	  1.160e-001 	             	
         1.369	             	  4.260e-001 	
         1.408	  1.151e-001 	             	
         1.433	             	  4.262e-001 	
         1.472	  1.153e-001 	             	
         1.497	             	  4.263e-001 	
         1.536	  1.145e-001 	             	
         1.561	             	  4.265e-001 	
         1.600	  1.163e-001 	             	
         1.625	             	  4.266e-001 	
         1.664	  1.159e-001 	             	
         1.721	             	  4.267e-001 	
         1.760	  1.151e-001 	             	
         1.785	             	  4.269e-001 	
         1.824	  1.157e-001 	             	
         1.849	             	  4.271e-001 	
         1.888	  1.153e-001 	             	
         1.913	             	  4.272e-001 	
         1.952	  1.149e-001 	             	
         1.977	             	  4.273e-001 	
         2.016	  1.153e-001 	             	
         2.041	             	  4.274e-001 	
         2.080	  1.158e-001 	             	
         2.105	             	  4.275e-001 	
         2.144	  1.166e-001 	             	
         2.169	             	  4.277e-001 	
         2.208	  1.156e-001 	             	
         2.233	             	  4.277e-001 	
         2.272	  1.148e-001 	             	
         2.297	             	  4.278e-001 	
         2.336	  1.156e-001 	             	
         2.361	             	  4.278e-001 	
         2.400	  1.149e-001 	             	
         2.425	             	  4.279e-001 	
         2.496	  1.157e-001 	             	
         2.521	             	  4.280e-001 	
         2.560	  1.150e-001 	             	
         2.585	             	  4.281e-001 	
         2.624	  1.150e-001 	             	
         2.649	             	  4.281e-001 	
         2.688	  1.157e-001 	             	
         2.713	             	  4.282e-001 	
         2.752	  1.153e-001 	             	
         2.777	             	  4.282e-001 	
         2.816	  1.160e-001 	             	
         2.841	             	  4.282e-001 	
         2.880	  1.160e-001 	             	
         2.905	             	  4.281e-001 	
         2.944	  1.152e-001 	             	
         2.969	             	  4.281e-001 	
         3.008	  1.154e-001 	             	
         3.033	             	  4.281e-001 	
         3.072	  1.157e-001 	             	
         3.097	             	  4.281e-001 	
         3.136	  1.159e-001 	             	
         3.161	             	  4.281e-001 	
         3.200	  1.157e-001 	             	
         3.225	             	  4.282e-001 	
         3.264	  1.157e-001 	             	
         3.321	             	  4.283e-001 	
         3.360	  1.156e-001 	             	
         3.385	             	  4.283e-001 	
         3.424	  1.165e-001 	             	
         3.449	             	  4.285e-001 	
         3.488	  1.163e-001 	             	
         3.513	             	  4.285e-001 	
         3.552	  1.160e-001 	             	
         3.577	             	  4.287e-001 	
         3.616	  1.156e-001 	             	
         3.641	             	  4.288e-001 	
         3.680	  1.160e-001 	             	
         3.705	             	  4.289e-001 	
         3.744	  1.157e-001 	             	
         3.769	             	  4.289e-001 	
         3.808	  1.154e-001 	             	
         3.833	             	  4.290e-001 	
         3.872	  1.156e-001 	             	
         3.897	             	  4.290e-001 	
         3.936	  1.153e-001 	             	
         3.961	             	  4.290e-001 	
         4.000	  1.149e-001 	             	
         4.025	             	  4.290e-001 	
         4.064	  1.157e-001 	             	
         4.121	             	  4.290e-001 	
         4.160	  1.152e-001 	             	
         4.185	             	  4.290e-001 	
         4.224	  1.149e-001 	             	
         4.249	             	  4.290e-001 	
         4.288	  1.141e-001 	             	
         4.313	             	  4.290e-001 	
         4.352	  1.140e-001 	             	
         4.377	             	  4.290e-001 	
         4.416	  1.139e-001 	             	
         4.441	             	  4.291e-001 	
         4.480	  1.136e-001 	             	
         4.505	             	  4.291e-001 	
         4.544	  1.140e-001 	             	
         4.569	             	  4.291e-001 	
         4.608	  1.133e-001 	             	
         4.633	             	  4.291e-001 	
         4.672	  1.137e-001 	             	
         4.697	             	  4.290e-001 	
         4.736	  1.131e-001 	             	
         4.761	             	  4.290e-001 	
         4.800	  1.142e-001 	             	
         4.825	             	  4.290e-001 	
         4.864	  1.141e-001 	             	
         4.921	             	  4.291e-001 	
         4.960	  1.139e-001 	             	
         4.985	             	  4.292e-001 	
         5.024	  1.139e-001 	             	
         5.049	             	  4.292e-001 	
         5.088	  1.146e-001 	             	
         5.113	             	  4.292e-001 	
         5.152	  1.145e-001 	             	
         5.177	             	  4.291e-001 	
         5.216	  1.149e-001 	             	
         5.241	             	  4.290e-001 	
         5.280	  1.141e-001 	             	
         5.305	             	  4.290e-001 	
         5.344	  1.155e-001 	             	
         5.369	             	  4.290e-001 	
         5.408	  1.150e-001 	             	
         5.433	             	  4.290e-001 	
         5.472	  1.145e-001 	             	
         5.497	             	  4.290e-001 	
         5.536	  1.148e-001 	             	
         5.561	             	  4.291e-001 	
         5.600	  1.151e-001 	             	
         5.625	             	  4.290e-001 	
         5.664	  1.151e-001 	             	
         5.721	             	  4.289e-001 	
         5.760	  1.150e-001 	             	
         5.785	             	  4.290e-001 	
         5.824	  1.149e-001 	             	
         5.849	             	  4.291e-001 	
         5.888	  1.147e-001 	             	
         5.913	             	  4.291e-001 	
         5.952	  1.142e-001 	             	
         5.977	             	  4.290e-001 	
         6.016	  1.146e-001 	             	
         6.041	             	  4.290e-001 	
         6.080	  1.151e-001 	             	
         6.105	             	  4.290e-001 	
         6.144	  1.158e-001 	             	
         6.169	             	  4.290e-001 	
         6.208	  1.157e-001 	             	
         6.233	             	  4.290e-001 	
         6.272	  1.167e-001 	             	
         6.297	             	  4.292e-001 	
         6.336	  1.162e-001 	             	
         6.361	             	  4.293e-001 	
         6.400	  1.158e-001 	             	
         6.425	             	  4.294e-001 	
         6.464	  1.162e-001 	             	
         6.521	             	  4.295e-001 	
         6.560	  1.162e-001 	             	
         6.585	             	  4.294e-001 	
         6.624	  1.167e-001 	             	
         6.648	             	  4.293e-001 	
         6.688	  1.162e-001 	             	
         6.713	             	  4.292e-001 	
         6.752	  1.165e-001 	             	
         6.777	             	  4.293e-001 	
         6.816	  1.164e-001 	             	
         6.841	             	  4.293e-001 	
         6.880	  1.165e-001 	             	
         6.905	             	  4.293e-001 	
         6.944	  1.170e-001 	             	
         6.969	             	  4.293e-001 	
         7.008	  1.163e-001 	             	
         7.033	             	  4.292e-001 	
         7.072	  1.160e-001 	             	
         7.097	             	  4.292e-001 	
         7.136	  1.167e-001 	             	
         7.161	             	  4.292e-001 	
         7.200	  1.157e-001 	             	
         7.225	             	  4.292e-001 	
         7.264	  1.154e-001 	             	
         7.320	             	  4.292e-001 	
         7.360	  1.167e-001 	             	
         7.385	             	  4.291e-001 	
         7.424	  1.158e-001 	             	
         7.449	             	  4.291e-001 	
         7.488	  1.167e-001 	             	
         7.512	             	  4.290e-001 	
         7.552	  1.166e-001 	             	
         7.576	             	  4.291e-001 	
         7.616	  1.166e-001 	             	
         7.641	             	  4.291e-001 	
         7.680	  1.167e-001 	             	
         7.705	             	  4.291e-001 	
         7.744	  1.164e-001 	             	
         7.768	             	  4.291e-001 	
         7.808	  1.160e-001 	             	
         7.832	             	  4.291e-001 	
         7.872	  1.161e-001 	             	
         7.897	             	  4.292e-001 	
         7.936	  1.165e-001 	             	
         7.960	             	  4.292e-001 	
         8.000	  1.159e-001 	             	
         8.024	             	  4.292e-001 	
         8.064	  1.159e-001 	             	
         8.120	             	  4.292e-001 	
         8.160	  1.150e-001 	             	
         8.184	             	  4.291e-001 	
         8.224	  1.152e-001 	             	
         8.248	             	  4.291e-001 	
         8.288	  1.159e-001 	             	
         8.312	             	  4.290e-001 	
         8.352	  1.151e-001 	             	
         8.376	             	  4.290e-001 	
         8.416	  1.153e-001 	             	
         8.441	             	  4.290e-001 	
         8.480	  1.156e-001 	             	
         8.504	             	  4.291e-001 	
         8.544	  1.152e-001 	             	
         8.568	             	  4.290e-001 	
         8.608	  1.149e-001 	             	
         8.632	             	  4.290e-001 	
         8.672	  1.150e-001 	             	
         8.696	             	  4.290e-001 	
         8.736	  1.144e-001 	             	
         8.762	             	  4.291e-001 	
         8.800	  1.158e-001 	             	
         8.824	             	  4.291e-001 	
         8.864	  1.153e-001 	             	
         8.920	             	  4.291e-001 	
         8.960	  1.153e-001 	             	
         8.984	             	  4.290e-001 	
         9.024	  1.153e-001 	             	
         9.048	             	  4.290e-001 	
         9.088	  1.156e-001 	             	
         9.112	             	  4.291e-001 	
         9.152	  1.160e-001 	             	
         9.176	             	  4.291e-001 	
         9.216	  1.149e-001 	             	
         9.240	             	  4.291e-001 	
         9.280	  1.159e-001 	             	
         9.304	             	  4.291e-001 	
         9.344	  1.155e-001 	             	
         9.368	             	  4.291e-001 	
         9.408	  1.156e-001 	             	
         9.432	             	  4.290e-001 	
         9.472	  1.157e-001 	             	
         9.497	             	  4.289e-001 	
         9.536	  1.158e-001 	             	
         9.560	             	  4.289e-001 	
         9.600	  1.155e-001 	             	
         9.624	             	  4.289e-001 	
         9.664	  1.161e-001 	             	
         9.688	             	  4.288e-001 	
         9.760	  1.155e-001 	             	
         9.784	             	  4.288e-001 	
         9.824	  1.158e-001 	             	
         9.849	             	  4.287e-001 	
         9.888	  1.161e-001 	             	
         9.912	             	  4.287e-001 	
         9.952	  1.161e-001 	             	
         9.976	             	  4.287e-001 	
        10.016	  1.157e-001 	             	
        10.040	             	  4.286e-001 	
        10.080	  1.160e-001 	             	
        10.104	             	  4.287e-001 	
        10.144	  1.160e-001 	             	
        10.168	             	  4.287e-001 	
        10.208	  1.157e-001 	             	
        10.232	             	  4.287e-001 	
        10.272	  1.157e-001 	             	
        10.296	             	  4.287e-001 	
        10.336	  1.153e-001 	             	
        10.360	             	  4.288e-001 	
        10.400	  1.158e-001 	             	
        10.424	             	  4.287e-001 	
        10.464	  1.156e-001 	             	
        10.488	             	  4.286e-001 	
        10.560	  1.158e-001 	             	
        10.584	             	  4.286e-001 	
        10.624	  1.161e-001 	             	
        10.648	             	  4.286e-001 	
        10.688	  1.147e-001 	             	
        10.712	             	  4.286e-001 	
        10.752	  1.162e-001 	             	
        10.776	             	  4.286e-001 	
        10.816	  1.164e-001 	             	
        10.840	             	  4.286e-001 	
        10.880	  1.162e-001 	             	
        10.904	             	  4.286e-001 	
        10.944	  1.165e-001 	             	
        10.968	             	  4.286e-001 	
        11.008	  1.162e-001 	             	
        11.032	             	  4.285e-001 	
        11.072	  1.164e-001 	             	
        11.096	             	  4.285e-001 	
        11.136	  1.164e-001 	             	
        11.160	             	  4.285e-001 	
        11.200	  1.164e-001 	             	
        11.224	             	  4.285e-001 	
        11.264	  1.161e-001 	             	
        11.288	             	  4.285e-001 	
        11.360	  1.166e-001 	             	
        11.385	             	  4.284e-001 	
        11.424	  1.163e-001 	             	
        11.448	             	  4.285e-001 	
        11.488	  1.170e-001 	             	
        11.512	             	  4.285e-001 	
        11.552	  1.151e-001 	             	
        11.576	             	  4.285e-001 	
        11.616	  1.163e-001 	             	
        11.640	             	  4.285e-001 	
        11.680	  1.159e-001 	             	
        11.704	             	  4.286e-001 	
        11.744	  1.169e-001 	             	
        11.768	             	  4.286e-001 	
        11.807	  1.159e-001 	             	
        11.832	             	  4.286e-001 	
        11.872	  1.164e-001 	             	
        11.896	             	  4.286e-001 	
        11.936	  1.169e-001 	             	
        11.960	             	  4.286e-001 	
        11.999	  1.163e-001 	             	
        12.024	             	  4.286e-001 	
        12.063	  1.159e-001 	             	
        12.088	             	  4.287e-001 	
        12.160	  1.163e-001 	             	
        12.184	             	  4.286e-001 	
        12.223	  1.158e-001 	             	
        12.248	             	  4.285e-001 	
        12.288	  1.154e-001 	             	
        12.312	             	  4.284e-001 	
        12.352	  1.159e-001 	             	
        12.376	             	  4.284e-001 	
        12.415	  1.163e-001 	             	
        12.440	             	  4.283e-001 	
        12.479	  1.163e-001 	             	
        12.504	             	  4.282e-001 	
        12.544	  1.157e-001 	             	
        12.568	             	  4.281e-001 	
        12.607	  1.165e-001 	             	
        12.632	             	  4.281e-001 	
        12.671	  1.168e-001 	             	
        12.696	             	  4.282e-001 	
        12.736	  1.160e-001 	             	
        12.760	             	  4.282e-001 	
        12.800	  1.164e-001 	             	
        12.824	             	  4.282e-001 	
        12.864	  1.168e-001 	             	
        12.888	             	  4.283e-001 	
        12.959	  1.163e-001 	             	
        12.984	             	  4.284e-001 	
        13.023	  1.163e-001 	             	
        13.048	             	  4.284e-001 	
        13.087	  1.165e-001 	             	
        13.112	             	  4.285e-001 	
        13.152	  1.167e-001 	             	
        13.176	             	  4.286e-001 	
        13.215	  1.161e-001 	             	
        13.240	             	  4.286e-001 	
        13.279	  1.161e-001 	             	
        13.304	             	  4.287e-001 	
        13.343	  1.154e-001 	             	
        13.368	             	  4.286e-001 	
        13.407	  1.154e-001 	             	
        13.432	             	  4.286e-001 	
        13.471	  1.149e-001 	             	
        13.496	             	  4.287e-001 	
        13.535	  1.167e-001 	             	
        13.560	             	  4.287e-001 	
        13.599	  1.165e-001 	             	
        13.624	             	  4.287e-001 	
        13.663	  1.165e-001 	             	
        13.688	             	  4.287e-001 	
        13.759	  1.158e-001 	             	
        13.784	             	  4.287e-001 	
        13.823	  1.164e-001 	             	
        13.848	             	  4.288e-001 	
        13.887	  1.167e-001 	             	
        13.912	             	  4.289e-001 	
        13.951	  1.162e-001 	             	
        13.976	             	  4.290e-001 	
        14.015	  1.153e-001 	             	
        14.040	             	  4.290e-001 	
        14.079	  1.167e-001 	             	
        14.104	             	  4.290e-001 	
        14.143	  1.162e-001 	             	
        14.168	             	  4.291e-001 	
        14.207	  1.164e-001 	             	
        14.232	             	  4.291e-001 	
        14.271	  1.161e-001 	             	
        14.296	             	  4.292e-001 	
        14.335	  1.160e-001 	             	
        14.360	             	  4.292e-001 	
        14.399	  1.156e-001 	             	
        14.424	             	  4.291e-001 	
        14.463	  1.159e-001 	             	
        14.488	             	  4.291e-001 	
        14.527	  1.161e-001 	             	
        14.584	             	  4.290e-001 	
        14.623	  1.155e-001 	             	
        14.648	             	  4.291e-001 	
        14.687	  1.152e-001 	             	
        14.712	             	  4.291e-001 	
        14.751	  1.154e-001 	             	
        14.776	             	  4.292e-001 	
        14.815	  1.158e-001 	             	
        14.840	             	  4.292e-001 	
        14.879	  1.167e-001 	             	
        14.904	             	  4.292e-001 	
        14.943	  1.158e-001 	             	
        14.968	             	  4.292e-001 	
        15.007	  1.153e-001 	             	
        15.032	             	  4.291e-001 	
        15.071	  1.161e-001 	             	
        15.096	             	  4.291e-001 	
        15.135	  1.157e-001 	             	
        15.160	             	  4.291e-001 	
        15.199	  1.158e-001 	             	
        15.224	             	  4.290e-001 	
        15.263	  1.161e-001 	             	
        15.288	             	  4.290e-001 	
        15.327	  1.161e-001 	             	
        15.384	             	  4.290e-001 	
        15.423	  1.157e-001 	             	
        15.448	             	  4.290e-001 	
        15.487	  1.166e-001 	             	
        15.512	             	  4.290e-001 	
        15.551	  1.159e-001 	             	
        15.576	             	  4.290e-001 	
        15.615	  1.162e-001 	             	
        15.640	             	  4.290e-001 	
        15.679	  1.161e-001 	             	
        15.704	             	  4.290e-001 	
        15.743	  1.168e-001 	             	
        15.768	             	  4.289e-001 	
        15.807	  1.160e-001 	             	
        15.833	             	  4.289e-001 	
        15.872	  1.166e-001 	             	
        15.897	             	  4.289e-001 	
        15.936	  1.152e-001 	             	
        15.961	             	  4.289e-001 	
        16.000	  1.151e-001 	             	
        16.025	             	  4.289e-001 	
        16.064	  1.153e-001 	             	
        16.089	             	  4.289e-001 	
        16.128	  1.159e-001 	             	
        16.185	             	  4.289e-001 	
        16.224	  1.157e-001 	             	
        16.249	             	  4.289e-001 	
        16.288	  1.160e-001 	             	
        16.313	             	  4.289e-001 	
        16.352	  1.158e-001 	             	
        16.377	             	  4.289e-001 	
        16.416	  1.157e-001 	             	
        16.441	             	  4.289e-001 	
        16.480	  1.157e-001 	             	
        16.505	             	  4.290e-001 	
        16.544	  1.155e-001 	             	
        16.569	             	  4.290e-001 	
        16.608	  1.162e-001 	             	
        16.633	             	  4.291e-001 	
        16.672	  1.158e-001 	             	
        16.697	             	  4.291e-001 	
        16.736	  1.164e-001 	             	
        16.761	             	  4.292e-001 	
        16.800	  1.150e-001 	             	
        16.825	             	  4.292e-001 	
        16.864	  1.161e-001 	             	
        16.889	             	  4.293e-001 	
        16.928	  1.157e-001 	             	
        16.985	             	  4.293e-001 	
        17.024	  1.159e-001 	             	
        17.049	             	  4.293e-001 	
        17.088	  1.158e-001 	             	
        17.113	             	  4.293e-001 	
        17.152	  1.156e-001 	             	
        17.177	             	  4.294e-001 	
        17.216	  1.169e-001 	             	
        17.241	             	  4.294e-001 	
        17.280	  1.163e-001 	             	
        17.305	             	  4.295e-001 	
        17.344	  1.162e-001 	             	
        17.369	             	  4.295e-001 	
        17.408	  1.165e-001 	             	
        17.433	             	  4.295e-001 	
        17.472	  1.167e-001 	             	
        17.497	             	  4.295e-001 	
        17.536	  1.168e-001 	             	
        17.561	             	  4.294e-001 	
        17.600	  1.169e-001 	             	
        17.625	             	  4.294e-001 	
        17.664	  1.167e-001 	             	
        17.689	             	  4.296e-001 	
        17.728	  1.164e-001 	             	
        17.785	             	  4.296e-001 	
        17.824	  1.166e-001 	             	
        17.849	             	  4.296e-001 	
        17.888	  1.167e-001 	             	
        17.913	             	  4.297e-001 	
        17.952	  1.164e-001 	             	
        17.977	             	  4.298e-001 	
        18.016	  1.165e-001 	             	
        18.041	             	  4.298e-001 	
        18.080	  1.162e-001 	             	
        18.105	             	  4.299e-001 	
        18.144	  1.158e-001 	             	
        18.169	             	  4.300e-001 	
        18.208	  1.162e-001 	             	
        18.233	             	  4.299e-001 	
        18.272	  1.165e-001 	             	
        18.297	             	  4.299e-001 	
        18.336	  1.175e-001 	             	
        18.361	             	  4.300e-001 	
        18.400	  1.159e-001 	             	
        18.425	             	  4.300e-001 	
        18.464	  1.164e-001 	             	
        18.489	             	  4.300e-001 	
        18.528	  1.167e-001 	             	
        18.585	             	  4.300e-001 	
        18.624	  1.162e-001 	             	
        18.649	             	  4.300e-001 	
        18.688	  1.156e-001 	             	
        18.713	             	  4.301e-001 	
        18.752	  1.160e-001 	             	
        18.777	             	  4.301e-001 	
        18.816	  1.160e-001 	             	
        18.841	             	  4.301e-001 	
        18.880	  1.160e-001 	             	
        18.905	             	  4.301e-001 	
        18.944	  1.161e-001 	             	
        18.969	             	  4.301e-001 	
        19.008	  1.163e-001 	             	
        19.033	             	  4.301e-001 	
        19.072	  1.160e-001 	             	
        19.097	             	  4.301e-001 	
        19.136	  1.156e-001 	             	
        19.161	             	  4.302e-001 	
        19.200	  1.156e-001 	             	
        19.225	             	  4.302e-001 	
        19.264	  1.158e-001 	             	
        19.289	             	  4.302e-001 	
        19.328	  1.160e-001 	             	
        19.385	             	  4.302e-001 	
        19.424	  1.157e-001 	             	
        19.449	             	  4.302e-001 	
        19.488	  1.162e-001 	             	
        19.513	             	  4.302e-001 	
        19.552	  1.157e-001 	             	
        19.577	             	  4.302e-001 	
        19.616	  1.160e-001 	             	
        19.641	             	  4.302e-001 	
        19.680	  1.155e-001 	             	
        19.705	             	  4.302e-001 	
        19.744	  1.154e-001 	             	
        19.769	             	  4.302e-001 	
        19.808	  1.146e-001 	             	
        19.833	             	  4.302e-001 	
        19.872	  1.153e-001 	             	
        19.897	             	  4.303e-001 	
        19.936	  1.158e-001 	             	
        19.961	             	  4.302e-001 	
        20.000	  1.154e-001 	             	
        20.025	             	  4.302e-001 	
        20.064	  1.154e-001 	             	
        20.089	             	  4.301e-001 	
        20.128	  1.150e-001 	             	
        20.185	             	  4.300e-001 	
        20.224	  1.148e-001 	             	
        20.249	             	  4.300e-001 	
        20.288	  1.151e-001 	             	
        20.313	             	  4.299e-001 	
        20.352	  1.149e-001 	             	
        20.377	             	  4.299e-001 	
        20.416	  1.158e-001 	             	
        20.441	             	  4.298e-001 	
        20.480	  1.158e-001 	             	
        20.505	             	  4.297e-001 	
        20.544	  1.156e-001 	             	
        20.569	             	  4.297e-001 	
        20.608	  1.159e-001 	             	
        20.633	             	  4.297e-001 	
        20.672	  1.158e-001 	             	
        20.697	             	  4.297e-001 	
        20.736	  1.160e-001 	             	
        20.761	             	  4.298e-001 	
        20.800	  1.161e-001 	             	
        20.825	             	  4.299e-001 	
        20.864	  1.158e-001 	             	
        20.889	             	  4.300e-001 	
        20.928	  1.155e-001 	             	
        20.985	             	  4.300e-001 	
        21.024	  1.162e-001 	             	
        21.049	             	  4.300e-001 	
        21.088	  1.151e-001 	             	
        21.113	             	  4.299e-001 	
        21.152	  1.155e-001 	             	
        21.177	             	  4.298e-001 	
        21.216	  1.164e-001 	             	
        21.241	             	  4.297e-001 	
        21.280	  1.159e-001 	             	
        21.305	             	  4.296e-001 	
        21.344	  1.166e-001 	             	
        21.369	             	  4.295e-001 	
        21.408	  1.163e-001 	             	
        21.433	             	  4.295e-001 	
        21.472	  1.162e-001 	             	
        21.497	             	  4.295e-001 	
        21.536	  1.160e-001 	             	
        21.561	             	  4.296e-001 	
        21.600	  1.160e-001 	             	
        21.625	             	  4.296e-001 	
        21.664	  1.156e-001 	             	
        21.689	             	  4.296e-001 	
        21.728	  1.165e-001 	             	
        21.785	             	  4.295e-001 	
        21.824	  1.160e-001 	             	
        21.849	             	  4.295e-001 	
        21.888	  1.165e-001 	             	
        21.913	             	  4.294e-001 	
        21.952	  1.168e-001 	             	
        21.977	             	  4.293e-001 	
        22.016	  1.165e-001 	             	
        22.041	             	  4.293e-001 	
        22.080	  1.166e-001 	             	
        22.105	             	  4.293e-001 	
        22.144	  1.166e-001 	             	
        22.169	             	  4.294e-001 	
        22.208	  1.161e-001 	             	
        22.233	             	  4.295e-001 	
        22.272	  1.163e-001 	             	
        22.297	             	  4.295e-001 	
        22.336	  1.165e-001 	             	
        22.361	             	  4.296e-001 	
        22.400	  1.166e-001 	             	
        22.425	             	  4.296e-001 	
        22.464	  1.158e-001 	             	
        22.489	             	  4.296e-001 	
        22.528	  1.158e-001 	             	
        22.553	             	  4.295e-001 	
        22.624	  1.157e-001 	             	
        22.649	             	  4.294e-001 	
        22.688	  1.163e-001 	             	
        22.713	             	  4.293e-001 	
        22.752	  1.162e-001 	             	
        22.777	             	  4.293e-001 	
        22.816	  1.161e-001 	             	
        22.841	             	  4.292e-001 	
        22.880	  1.152e-001 	             	
        22.905	             	  4.291e-001 	
        22.944	  1.156e-001 	             	
        22.969	             	  4.291e-001 	
        23.008	  1.159e-001 	             	
        23.033	             	  4.291e-001 	
        23.072	  1.159e-001 	             	
        23.097	             	  4.291e-001 	
        23.136	  1.158e-001 	             	
        23.161	             	  4.290e-001 	
        23.200	  1.155e-001 	             	
        23.225	             	  4.290e-001 	
        23.264	  1.156e-001 	             	
        23.289	             	  4.289e-001 	
        23.328	  1.159e-001 	             	
        23.353	             	  4.289e-001 	
        23.424	  1.171e-001 	             	
        23.449	             	  4.288e-001 	
        23.488	  1.166e-001 	             	
        23.513	             	  4.288e-001 	
        23.552	  1.165e-001 	             	
        23.577	             	  4.287e-001 	
        23.616	  1.164e-001 	             	
        23.641	             	  4.288e-001 	
        23.680	  1.162e-001 	             	
        23.705	             	  4.288e-001 	
        23.744	  1.166e-001 	             	
        23.769	             	  4.289e-001 	
        23.808	  1.167e-001 	             	
        23.833	             	  4.290e-001 	
        23.872	  1.166e-001 	             	
        23.897	             	  4.291e-001 	
        23.936	  1.161e-001 	             	
        23.961	             	  4.292e-001 	
        24.000	  1.164e-001 	             	
        24.025	             	  4.292e-001 	
        24.064	  1.164e-001 	             	
        24.089	             	  4.291e-001 	
        24.128	  1.165e-001 	             	
        24.153	             	  4.291e-001 	
        24.224	  1.164e-001 	             	
        24.249	             	  4.291e-001 	
        24.288	  1.166e-001 	             	
        24.312	             	  4.290e-001 	
        24.352	  1.167e-001 	             	
        24.377	             	  4.290e-001 	
        24.416	  1.167e-001 	             	
        24.440	             	  4.291e-001 	
        24.480	  1.163e-001 	             	
        24.505	             	  4.291e-001 	
        24.544	  1.161e-001 	             	
        24.569	             	  4.291e-001 	
        24.608	  1.161e-001 	             	
        24.633	             	  4.290e-001 	
        24.672	  1.163e-001 	             	
        24.697	             	  4.290e-001 	
        24.736	  1.163e-001 	             	
        24.760	             	  4.289e-001 	
        24.800	  1.160e-001 	             	
        24.825	             	  4.288e-001 	
        24.864	  1.155e-001 	             	
        24.889	             	  4.288e-001 	
        24.928	  1.160e-001 	             	
        24.953	             	  4.288e-001 	
        25.024	  1.164e-001 	             	
        25.048	             	  4.288e-001 	
        25.088	  1.155e-001 	             	
        25.112	             	  4.288e-001 	
        25.152	  1.155e-001 	             	
        25.177	             	  4.287e-001 	
        25.216	  1.150e-001 	             	
        25.240	             	  4.287e-001 	
        25.280	  1.150e-001 	             	
        25.304	             	  4.286e-001 	
        25.344	  1.159e-001 	             	
        25.368	             	  4.286e-001 	
        25.408	  1.163e-001 	             	
        25.432	             	  4.285e-001 	
        25.472	  1.159e-001 	             	
        25.496	             	  4.286e-001 	
        25.536	  1.157e-001 	             	
        25.560	             	  4.287e-001 	
        25.600	  1.158e-001 	             	
        25.624	             	  4.287e-001 	
        25.664	  1.159e-001 	             	
        25.689	             	  4.287e-001 	
        25.728	  1.159e-001 	             	
        25.752	             	  4.287e-001 	
        25.824	  1.158e-001 	             	
        25.848	             	  4.287e-001 	
        25.888	  1.159e-001 	             	
        25.913	             	  4.286e-001 	
        25.952	  1.160e-001 	             	
        25.976	             	  4.287e-001 	
        26.016	  1.161e-001 	             	
        26.040	             	  4.287e-001 	
        26.080	  1.162e-001 	             	
        26.104	             	  4.288e-001 	
        26.144	  1.159e-001 	             	
        26.168	             	  4.288e-001 	
        26.208	  1.159e-001 	             	
        26.232	             	  4.288e-001 	
        26.272	  1.168e-001 	             	
        26.296	             	  4.288e-001 	
        26.336	  1.165e-001 	             	
        26.360	             	  4.288e-001 	
        26.400	  1.163e-001 	             	
        26.424	             	  4.289e-001 	
        26.464	  1.157e-001 	             	
        26.488	             	  4.288e-001 	
        26.528	  1.153e-001 	             	
        26.552	             	  4.287e-001 	
        26.624	  1.155e-001 	             	
        26.648	             	  4.287e-001 	
        26.688	  1.162e-001 	             	
        26.712	             	  4.287e-001 	
        26.752	  1.158e-001 	             	
        26.777	             	  4.287e-001 	
        26.816	  1.159e-001 	             	
        26.841	             	  4.288e-001 	
        26.880	  1.159e-001 	             	
        26.904	             	  4.288e-001 	
        26.944	  1.164e-001 	             	
        26.968	             	  4.288e-001 	
        27.008	  1.161e-001 	             	
        27.032	             	  4.288e-001 	
        27.072	  1.164e-001 	             	
        27.097	             	  4.288e-001 	
        27.136	  1.170e-001 	             	
        27.160	             	  4.289e-001 	
        27.200	  1.162e-001 	             	
        27.224	             	  4.290e-001 	
        27.264	  1.165e-001 	             	
        27.288	             	  4.291e-001 	
        27.328	  1.160e-001 	             	
        27.352	             	  4.291e-001 	
        27.424	  1.165e-001 	             	
        27.448	             	  4.291e-001 	
        27.488	  1.162e-001 	             	
        27.512	             	  4.291e-001 	
        27.552	  1.156e-001 	             	
        27.576	             	  4.290e-001 	
        27.616	  1.161e-001 	             	
        27.640	             	  4.290e-001 	
        27.680	  1.157e-001 	             	
        27.704	             	  4.289e-001 	
        27.744	  1.158e-001 	             	
        27.768	             	  4.288e-001 	
        27.808	  1.161e-001 	             	
        27.832	             	  4.288e-001 	
        27.872	  1.159e-001 	             	
        27.896	             	  4.288e-001 	
        27.936	  1.162e-001 	             	
        27.960	             	  4.288e-001 	
        28.000	  1.167e-001 	             	
        28.024	             	  4.288e-001 	
        28.064	  1.169e-001 	             	
        28.088	             	  4.287e-001 	
        28.128	  1.166e-001 	             	
        28.152	             	  4.287e-001 	
        28.192	  1.168e-001 	             	
        28.248	             	  4.287e-001 	
        28.288	  1.171e-001 	             	
        28.312	             	  4.288e-001 	
        28.352	  1.156e-001 	             	
        28.376	             	  4.289e-001 	
        28.416	  1.168e-001 	             	
        28.440	             	  4.289e-001 	
        28.480	  1.159e-001 	             	
        28.504	             	  4.290e-001 	
        28.544	  1.165e-001 	             	
        28.568	             	  4.290e-001 	
        28.608	  1.169e-001 	             	
        28.632	             	  4.290e-001 	
        28.672	  1.169e-001 	             	
        28.696	             	  4.291e-001 	
        28.736	  1.171e-001 	             	
        28.760	             	  4.291e-001 	
        28.800	  1.166e-001 	             	
        28.824	             	  4.292e-001 	
        28.864	  1.169e-001 	             	
        28.888	             	  4.292e-001 	
        28.928	  1.165e-001 	             	
        28.952	             	  4.293e-001 	
        28.992	  1.159e-001 	             	
        29.048	             	  4.294e-001 	
        29.088	  1.164e-001 	             	
        29.112	             	  4.295e-001 	
        29.152	  1.163e-001 	             	
        29.176	             	  4.296e-001 	
        29.216	  1.166e-001 	             	
        29.240	             	  4.296e-001 	
        29.279	  1.166e-001 	             	
        29.304	             	  4.297e-001 	
        29.343	  1.167e-001 	             	
        29.368	             	  4.298e-001 	
        29.408	  1.171e-001 	             	
        29.432	             	  4.299e-001 	
        29.471	  1.164e-001 	             	
        29.496	             	  4.299e-001 	
        29.535	  1.160e-001 	             	
        29.560	             	  4.299e-001 	
        29.600	  1.161e-001 	             	
        29.624	             	  4.300e-001 	
        29.663	  1.159e-001 	             	
        29.688	             	  4.301e-001 	
        29.728	  1.156e-001 	             	
        29.752	             	  4.302e-001 	
        29.791	  1.167e-001 	             	
        29.848	             	  4.302e-001 	
        29.887	  1.163e-001 	             	
        29.912	             	  4.302e-001 	
        29.951	  1.163e-001 	             	
        29.976	             	  4.303e-001 	
        30.015	  1.167e-001 	             	
        30.040	             	  4.303e-001 	
        30.079	  1.170e-001 	             	
        30.104	             	  4.304e-001 	
        30.143	  1.163e-001 	             	
        30.168	             	  4.305e-001 	
        30.207	  1.167e-001 	             	
        30.232	             	  4.306e-001 	
        30.271	  1.158e-001 	             	
        30.296	             	  4.306e-001 	
        30.335	  1.161e-001 	             	
        30.360	             	  4.306e-001 	
        30.399	  1.163e-001 	             	
        30.424	             	  4.307e-001 	
        30.463	  1.159e-001 	             	
        30.488	             	  4.306e-001 	
        30.527	  1.167e-001 	             	
        30.552	             	  4.306e-001 	
        30.591	  1.170e-001 	             	
        30.648	             	  4.307e-001 	
        30.687	  1.162e-001 	             	
        30.712	             	  4.307e-001 	
        30.751	  1.162e-001 	             	
        30.776	             	  4.308e-001 	
        30.816	  1.152e-001 	             	
        30.840	             	  4.308e-001 	
        30.879	  1.151e-001 	             	
        30.904	             	  4.308e-001 	
        30.943	  1.147e-001 	             	
        30.968	             	  4.307e-001 	
        31.007	  1.149e-001 	             	
        31.032	             	  4.307e-001 	
        31.072	  1.152e-001 	             	
        31.096	             	  4.306e-001 	
        31.135	  1.145e-001 	             	
        31.160	             	  4.307e-001 	
        31.199	  1.147e-001 	             	
        31.224	             	  4.308e-001 	
        31.263	  1.140e-001 	             	
        31.288	             	  4.309e-001 	
        31.327	  1.143e-001 	             	
        31.352	             	  4.309e-001 	
        31.391	  1.133e-001 	             	
        31.448	             	  4.308e-001 	
        31.487	  1.127e-001 	             	
        31.512	             	  4.308e-001 	
        31.551	  1.131e-001 	             	
        31.576	             	  4.308e-001 	
        31.615	  1.135e-001 	             	
        31.640	             	  4.307e-001 	
        31.679	  1.129e-001 	             	
        31.704	             	  4.306e-001 	
        31.743	  1.139e-001 	             	
        31.768	             	  4.305e-001 	
        31.807	  1.135e-001 	             	
        31.832	             	  4.304e-001 	
        31.871	  1.132e-001 	             	
        31.896	             	  4.304e-001 	
        31.935	  1.128e-001 	             	
        31.960	             	  4.304e-001 	
        31.999	  1.123e-001 	             	
        32.024	             	  4.304e-001 	
        32.063	  1.119e-001 	             	
        32.088	             	  4.304e-001 	
        32.127	  1.120e-001 	             	
        32.152	             	  4.304e-001 	
        32.191	  1.124e-001 	             	
        32.248	             	  4.304e-001 	
        32.287	  1.123e-001 	             	
        32.312	             	  4.303e-001 	
        32.351	  1.126e-001 	             	
        32.376	             	  4.301e-001 	
        32.415	  1.138e-001 	             	
        32.440	             	  4.300e-001 	
        32.479	  1.125e-001 	             	
        32.504	             	  4.300e-001 	
        32.543	  1.119e-001 	             	
        32.568	             	  4.300e-001 	
        32.607	  1.115e-001 	             	
        32.632	             	  4.302e-001 	
        32.671	  1.113e-001 	             	
        32.696	             	  4.303e-001 	
        32.735	  1.117e-001 	             	
        32.760	             	  4.304e-001 	
        32.799	  1.118e-001 	             	
        32.824	             	  4.304e-001 	
        32.863	  1.121e-001 	             	
        32.888	             	  4.304e-001 	
        32.927	  1.114e-001 	             	
        32.952	             	  4.304e-001 	
        32.992	  1.116e-001 	             	
        33.048	             	  4.304e-001 	
        33.087	  1.117e-001 	             	
        33.112	             	  4.304e-001 	
        33.151	  1.124e-001 	             	
        33.176	             	  4.303e-001 	
        33.215	  1.134e-001 	             	
        33.240	             	  4.303e-001 	
        33.279	  1.198e-001 	             	
        33.304	             	  4.303e-001 	
        33.344	  1.292e-001 	             	
        33.369	             	  4.302e-001 	
        33.408	  1.385e-001 	             	
        33.433	             	  4.302e-001 	
        33.472	  1.474e-001 	             	
        33.497	             	  4.302e-001 	
        33.536	  1.502e-001 	             	
        33.561	             	  4.302e-001 	
        33.600	  1.523e-001 	             	
        33.625	             	  4.303e-001 	
        33.664	  1.496e-001 	             	
        33.689	             	  4.303e-001 	
        33.728	  1.441e-001 	             	
        33.753	             	  4.303e-001 	
        33.792	  1.408e-001 	             	
        33.849	             	  4.303e-001 	
        33.888	  1.364e-001 	             	
        33.913	             	  4.303e-001 	
        33.952	  1.314e-001 	             	
        33.977	             	  4.302e-001 	
        34.016	  1.272e-001 	             	
        34.041	             	  4.302e-001 	
        34.080	  1.244e-001 	             	
        34.105	             	  4.301e-001 	
        34.144	  1.227e-001 	             	
        34.169	             	  4.301e-001 	
        34.208	  1.210e-001 	             	
        34.233	             	  4.302e-001 	
        34.272	  1.194e-001 	             	
        34.297	             	  4.301e-001 	
        34.336	  1.185e-001 	             	
        34.361	             	  4.302e-001 	
        34.400	  1.178e-001 	             	
        34.425	             	  4.302e-001 	
        34.464	  1.181e-001 	             	
        34.489	             	  4.302e-001 	
        34.528	  1.173e-001 	             	
        34.553	             	  4.302e-001 	
        34.592	  1.167e-001 	             	
        34.649	             	  4.302e-001 	
        34.688	  1.173e-001 	             	
        34.713	             	  4.302e-001 	
        34.752	  1.172e-001 	             	
        34.777	             	  4.301e-001 	
        34.816	  1.177e-001 	             	
        34.841	             	  4.302e-001 	
        34.880	  1.171e-001 	             	
        34.905	             	  4.301e-001 	
        34.944	  1.175e-001 	             	
        34.969	             	  4.301e-001 	
        35.008	  1.171e-001 	             	
        35.033	             	  4.300e-001 	
        35.072	  1.175e-001 	             	
        35.097	             	  4.300e-001 	
        35.136	  1.177e-001 	             	
        35.161	             	  4.301e-001 	
        35.200	  1.169e-001 	             	
        35.225	             	  4.301e-001 	
        35.264	  1.173e-001 	             	
        35.289	             	  4.301e-001 	
        35.328	  1.176e-001 	             	
        35.353	             	  4.301e-001 	
        35.392	  1.168e-001 	             	
        35.417	             	  4.301e-001 	
        35.488	  1.171e-001 	             	
        35.513	             	  4.301e-001 	
        35.552	  1.163e-001 	             	
        35.577	             	  4.300e-001 	
        35.616	  1.154e-001 	             	
        35.641	             	  4.300e-001 	
        35.680	  1.159e-001 	             	
        35.705	             	  4.300e-001 	
        35.744	  1.161e-001 	             	
        35.769	             	  4.300e-001 	
        35.808	  1.163e-001 	             	
        35.833	             	  4.299e-001 	
        35.872	  1.172e-001 	             	
        35.897	             	  4.299e-001 	
        35.936	  1.163e-001 	             	
        35.961	             	  4.299e-001 	
        36.000	  1.152e-001 	             	
        36.025	             	  4.299e-001 	
        36.064	  1.153e-001 	             	
        36.089	             	  4.299e-001 	
        36.128	  1.157e-001 	             	
        36.153	             	  4.299e-001 	
        36.192	  1.158e-001 	             	
        36.217	             	  4.299e-001 	
        36.288	  1.158e-001 	             	
        36.313	             	  4.299e-001 	
        36.352	  1.157e-001 	             	
        36.377	             	  4.298e-001 	
        36.416	  1.152e-001 	             	
        36.441	             	  4.298e-001 	
        36.480	  1.153e-001 	             	
        36.505	             	  4.298e-001 	
        36.544	  1.150e-001 	             	
        36.569	             	  4.297e-001 	
        36.608	  1.157e-001 	             	
        36.633	             	  4.297e-001 	
        36.672	  1.161e-001 	             	
        36.697	             	  4.296e-001 	
        36.736	  1.156e-001 	             	
        36.761	             	  4.295e-001 	
        36.800	  1.149e-001 	             	
        36.825	             	  4.295e-001 	
        36.864	  1.154e-001 	             	
        36.889	             	  4.295e-001 	
        36.928	  1.155e-001 	             	
        36.953	             	  4.296e-001 	
        36.992	  1.161e-001 	             	
        37.017	             	  4.295e-001 	
        37.088	  1.160e-001 	             	
        37.113	             	  4.296e-001 	
        37.152	  1.166e-001 	             	
        37.177	             	  4.296e-001 	
        37.216	  1.160e-001 	             	
        37.241	             	  4.296e-001 	
        37.280	  1.158e-001 	             	
        37.305	             	  4.296e-001 	
        37.344	  1.151e-001 	             	
        37.369	             	  4.296e-001 	
        37.408	  1.159e-001 	             	
        37.433	             	  4.295e-001 	
        37.472	  1.155e-001 	             	
        37.497	             	  4.295e-001 	
        37.536	  1.161e-001 	             	
        37.561	             	  4.294e-001 	
        37.600	  1.163e-001 	             	
        37.625	             	  4.293e-001 	
        37.664	  1.158e-001 	             	
        37.689	             	  4.293e-001 	
        37.728	  1.166e-001 	             	
        37.753	             	  4.293e-001 	
        37.792	  1.166e-001 	             	
        37.817	             	  4.292e-001 	
        37.888	  1.160e-001 	             	
        37.913	             	  4.292e-001 	
        37.952	  1.167e-001 	             	
        37.977	             	  4.292e-001 	
        38.016	  1.155e-001 	             	
        38.041	             	  4.292e-001 	
        38.080	  1.168e-001 	             	
        38.105	             	  4.294e-001 	
        38.144	  1.159e-001 	             	
        38.169	             	  4.295e-001 	
        38.208	  1.154e-001 	             	
        38.233	             	  4.296e-001 	
        38.272	  1.150e-001 	             	
        38.297	             	  4.296e-001 	
        38.336	  1.165e-001 	             	
        38.361	             	  4.295e-001 	
        38.400	  1.165e-001 	             	
        38.425	             	  4.295e-001 	
        38.464	  1.168e-001 	             	
        38.489	             	  4.294e-001 	
        38.528	  1.166e-001 	             	
        38.553	             	  4.294e-001 	
        38.592	  1.169e-001 	             	
        38.617	             	  4.294e-001 	
        38.688	  1.172e-001 	             	
        38.713	             	  4.294e-001 	
        38.752	  1.168e-001 	             	
        38.777	             	  4.294e-001 	
        38.816	  1.168e-001 	             	
        38.841	             	  4.294e-001 	
        38.880	  1.173e-001 	             	
        38.905	             	  4.295e-001 	
        38.944	  1.168e-001 	             	
        38.969	             	  4.295e-001 	
        39.008	  1.169e-001 	             	
        39.033	             	  4.296e-001 	
        39.072	  1.169e-001 	             	
        39.097	             	  4.296e-001 	
        39.136	  1.167e-001 	             	
        39.161	             	  4.296e-001 	
        39.200	  1.176e-001 	             	
        39.225	             	  4.296e-001 	
        39.264	  1.162e-001 	             	
        39.289	             	  4.297e-001 	
        39.328	  1.167e-001 	             	
        39.353	             	  4.297e-001 	
        39.392	  1.171e-001 	             	
        39.417	             	  4.296e-001 	
        39.488	  1.173e-001 	             	
        39.513	             	  4.297e-001 	
        39.552	  1.177e-001 	             	
        39.577	             	  4.297e-001 	
        39.616	  1.172e-001 	             	
        39.641	             	  4.297e-001 	
        39.680	  1.167e-001 	             	
        39.705	             	  4.297e-001 	
        39.744	  1.167e-001 	             	
        39.769	             	  4.296e-001 	
        39.808	  1.168e-001 	             	
        39.833	             	  4.295e-001 	
        39.872	  1.168e-001 	             	
        39.897	             	  4.296e-001 	
        39.936	  1.189e-001 	             	
        39.961	             	  4.296e-001 	
        40.000	  1.175e-001 	             	
        40.025	             	  4.296e-001 	
        40.064	  1.169e-001 	             	
        40.089	             	  4.296e-001 	
        40.128	  1.167e-001 	             	
        40.153	             	  4.297e-001 	
        40.192	  1.166e-001 	             	
        40.217	             	  4.297e-001 	
        40.288	  1.166e-001 	             	
        40.313	             	  4.297e-001 	
        40.352	  1.165e-001 	             	
        40.377	             	  4.296e-001 	
        40.416	  1.166e-001 	             	
        40.441	             	  4.296e-001 	
        40.480	  1.169e-001 	             	
        40.505	             	  4.297e-001 	
        40.544	  1.174e-001 	             	
        40.569	             	  4.297e-001 	
        40.608	  1.167e-001 	             	
        40.633	             	  4.296e-001 	
        40.672	  1.150e-001 	             	
        40.697	             	  4.296e-001 	
        40.736	  1.166e-001 	             	
        40.761	             	  4.296e-001 	
        40.800	  1.161e-001 	             	
        40.825	             	  4.295e-001 	
        40.864	  1.159e-001 	             	
        40.889	             	  4.295e-001 	
        40.928	  1.166e-001 	             	
        40.953	             	  4.295e-001 	
        40.992	  1.161e-001 	             	
        41.017	             	  4.295e-001 	
        41.088	  1.162e-001 	             	
        41.113	             	  4.295e-001 	
        41.152	  1.164e-001 	             	
        41.177	             	  4.294e-001 	
        41.216	  1.166e-001 	             	
        41.241	             	  4.294e-001 	
        41.280	  1.162e-001 	             	
        41.305	             	  4.295e-001 	
        41.344	  1.164e-001 	             	
        41.369	             	  4.295e-001 	
        41.408	  1.159e-001 	             	
        41.433	             	  4.295e-001 	
        41.472	  1.166e-001 	             	
        41.496	             	  4.295e-001 	
        41.536	  1.167e-001 	             	
        41.561	             	  4.295e-001 	
        41.600	  1.161e-001 	             	
        41.625	             	  4.295e-001 	
        41.664	  1.166e-001 	             	
        41.689	             	  4.295e-001 	
        41.728	  1.162e-001 	             	
        41.753	             	  4.296e-001 	
        41.792	  1.167e-001 	             	
        41.817	             	  4.295e-001 	
        41.856	  1.162e-001 	             	
        41.913	             	  4.295e-001 	
        41.952	  1.161e-001 	             	
        41.977	             	  4.295e-001 	
        42.016	  1.164e-001 	             	
        42.041	             	  4.295e-001 	
        42.080	  1.167e-001 	             	
        42.104	             	  4.295e-001 	
        42.144	  1.162e-001 	             	
        42.169	             	  4.296e-001 	
        42.208	  1.161e-001 	             	
        42.233	             	  4.297e-001 	
        42.272	  1.168e-001 	             	
        42.297	             	  4.297e-001 	
        42.336	  1.163e-001 	             	
        42.361	             	  4.298e-001 	
        42.400	  1.161e-001 	             	
        42.424	             	  4.298e-001 	
        42.464	  1.176e-001 	             	
        42.489	             	  4.298e-001 	
        42.528	  1.166e-001 	             	
        42.552	             	  4.297e-001 	
        42.592	  1.162e-001 	             	
        42.616	             	  4.297e-001 	
        42.656	  1.167e-001 	             	
        42.713	             	  4.296e-001 	
        42.752	  1.162e-001 	             	
        42.776	             	  4.295e-001 	
        42.816	  1.163e-001 	             	
        42.840	             	  4.295e-001 	
        42.880	  1.165e-001 	             	
        42.904	             	  4.294e-001 	
        42.944	  1.154e-001 	             	
        42.968	             	  4.295e-001 	
        43.008	  1.169e-001 	             	
        43.032	             	  4.295e-001 	
        43.072	  1.165e-001 	             	
        43.097	             	  4.295e-001 	
        43.136	  1.163e-001 	             	
        43.161	             	  4.295e-001 	
        43.200	  1.163e-001 	             	
        43.224	             	  4.295e-001 	
        43.264	  1.163e-001 	             	
        43.288	             	  4.295e-001 	
        43.328	  1.177e-001 	             	
        43.352	             	  4.295e-001 	
        43.392	  1.172e-001 	             	
        43.416	             	  4.294e-001 	
        43.456	  1.169e-001 	             	
        43.512	             	  4.294e-001 	
        43.552	  1.168e-001 	             	
        43.576	             	  4.294e-001 	
        43.616	  1.175e-001 	             	
        43.640	             	  4.294e-001 	
        43.680	  1.173e-001 	             	
        43.704	             	  4.294e-001 	
        43.744	  1.167e-001 	             	
        43.768	             	  4.295e-001 	
        43.808	  1.174e-001 	             	
        43.832	             	  4.294e-001 	
        43.872	  1.170e-001 	             	
        43.896	             	  4.294e-001 	
        43.936	  1.176e-001 	             	
        43.960	             	  4.295e-001 	
        44.000	  1.169e-001 	             	
        44.024	             	  4.296e-001 	
        44.064	  1.172e-001 	             	
        44.088	             	  4.296e-001 	
        44.128	  1.173e-001 	             	
        44.152	             	  4.296e-001 	
        44.192	  1.176e-001 	             	
        44.216	             	  4.295e-001 	
        44.256	  1.179e-001 	             	
        44.312	             	  4.295e-001 	
        44.352	  1.164e-001 	             	
        44.376	             	  4.295e-001 	
        44.416	  1.172e-001 	             	
        44.440	             	  4.294e-001 	
        44.480	  1.174e-001 	             	
        44.504	             	  4.294e-001 	
        44.544	  1.169e-001 	             	
        44.568	             	  4.293e-001 	
        44.608	  1.169e-001 	             	
        44.632	             	  4.293e-001 	
        44.672	  1.172e-001 	             	
        44.696	             	  4.293e-001 	
        44.736	  1.167e-001 	             	
        44.760	             	  4.292e-001 	
        44.800	  1.169e-001 	             	
        44.824	             	  4.292e-001 	
        44.864	  1.164e-001 	             	
        44.888	             	  4.292e-001 	
        44.928	  1.164e-001 	             	
        44.952	             	  4.292e-001 	
        44.992	  1.166e-001 	             	
        45.016	             	  4.292e-001 	
        45.056	  1.170e-001 	             	
        45.112	             	  4.292e-001 	
        45.152	  1.168e-001 	             	
        45.176	             	  4.291e-001 	
        45.216	  1.168e-001 	             	
        45.240	             	  4.290e-001 	
        45.280	  1.169e-001 	             	
        45.304	             	  4.290e-001 	
        45.344	  1.171e-001 	             	
        45.368	             	  4.289e-001 	
        45.408	  1.166e-001 	             	
        45.432	             	  4.290e-001 	
        45.472	  1.167e-001 	             	
        45.496	             	  4.290e-001 	
        45.536	  1.166e-001 	             	
        45.560	             	  4.291e-001 	
        45.600	  1.161e-001 	             	
        45.624	             	  4.291e-001 	
        45.664	  1.161e-001 	             	
        45.688	             	  4.291e-001 	
        45.728	  1.167e-001 	             	
        45.752	             	  4.292e-001 	
        45.792	  1.164e-001 	             	
        45.816	             	  4.292e-001 	
        45.856	  1.162e-001 	             	
        45.912	             	  4.293e-001 	
        45.951	  1.167e-001 	             	
        45.976	             	  4.294e-001 	
        46.016	  1.160e-001 	             	
        46.040	             	  4.295e-001 	
        46.080	  1.170e-001 	             	
        46.104	             	  4.296e-001 	
        46.144	  1.165e-001 	             	
        46.168	             	  4.296e-001 	
        46.208	  1.166e-001 	             	
        46.232	             	  4.297e-001 	
        46.272	  1.172e-001 	             	
        46.296	             	  4.296e-001 	
        46.336	  1.160e-001 	             	
        46.360	             	  4.295e-001 	
        46.400	  1.162e-001 	             	
        46.425	             	  4.294e-001 	
        46.464	  1.155e-001 	             	
        46.488	             	  4.293e-001 	
        46.528	  1.158e-001 	             	
        46.552	             	  4.292e-001 	
        46.592	  1.165e-001 	             	
        46.616	             	  4.292e-001 	
        46.656	  1.169e-001 	             	
        46.712	             	  4.291e-001 	
        46.751	  1.174e-001 	             	
        46.776	             	  4.291e-001 	
        46.815	  1.170e-001 	             	
        46.840	             	  4.291e-001 	
        46.880	  1.169e-001 	             	
        46.904	             	  4.291e-001 	
        46.943	  1.168e-001 	             	
        46.968	             	  4.291e-001 	
        47.008	  1.160e-001 	             	
        47.032	             	  4.291e-001 	
        47.071	  1.166e-001 	             	
        47.096	             	  4.290e-001 	
        47.136	  1.162e-001 	             	
        47.160	             	  4.291e-001 	
        47.199	  1.166e-001 	             	
        47.224	             	  4.291e-001 	
        47.263	  1.163e-001 	             	
        47.288	             	  4.291e-001 	
        47.328	  1.162e-001 	             	
        47.352	             	  4.291e-001 	
        47.391	  1.164e-001 	             	
        47.416	             	  4.292e-001 	
        47.455	  1.158e-001 	             	
        47.480	             	  4.293e-001 	
        47.551	  1.164e-001 	             	
        47.576	             	  4.294e-001 	
        47.615	  1.171e-001 	             	
        47.640	             	  4.293e-001 	
        47.679	  1.162e-001 	             	
        47.704	             	  4.293e-001 	
        47.744	  1.168e-001 	             	
        47.768	             	  4.292e-001 	
        47.807	  1.168e-001 	             	
        47.832	             	  4.292e-001 	
        47.871	  1.162e-001 	             	
        47.896	             	  4.291e-001 	
        47.936	  1.165e-001 	             	
        47.960	             	  4.292e-001 	
        47.999	  1.168e-001 	             	
        48.024	             	  4.292e-001 	
        48.063	  1.168e-001 	             	
        48.088	             	  4.292e-001 	
        48.127	  1.170e-001 	             	
        48.152	             	  4.292e-001 	
        48.191	  1.173e-001 	             	
        48.216	             	  4.291e-001 	
        48.256	  1.171e-001 	             	
        48.312	             	  4.291e-001 	
        48.351	  1.178e-001 	             	
        48.376	             	  4.292e-001 	
        48.415	  1.181e-001 	             	
        48.440	             	  4.292e-001 	
        48.479	  1.172e-001 	             	
        48.504	             	  4.292e-001 	
        48.543	  1.178e-001 	             	
        48.568	             	  4.293e-001 	
        48.607	  1.177e-001 	             	
        48.632	             	  4.294e-001 	
        48.671	  1.179e-001 	             	
        48.696	             	  4.294e-001 	
        48.736	  1.182e-001 	             	
        48.760	             	  4.294e-001 	
        48.799	  1.181e-001 	             	
        48.824	             	  4.295e-001 	
        48.863	  1.173e-001 	             	
        48.888	             	  4.295e-001 	
        48.927	  1.184e-001 	             	
        48.952	             	  4.295e-001 	
        48.991	  1.186e-001 	             	
        49.016	             	  4.296e-001 	
        49.055	  1.181e-001 	             	
        49.080	             	  4.295e-001 	
        49.151	  1.171e-001 	             	
        49.176	             	  4.296e-001 	
        49.215	  1.174e-001 	             	
        49.240	             	  4.296e-001 	
        49.279	  1.185e-001 	             	
        49.304	             	  4.296e-001 	
        49.343	  1.178e-001 	             	
        49.368	             	  4.296e-001 	
        49.407	  1.184e-001 	             	
        49.432	             	  4.296e-001 	
        49.471	  1.186e-001 	             	
        49.496	             	  4.295e-001 	
        49.535	  1.174e-001 	             	
        49.560	             	  4.295e-001 	
        49.599	  1.179e-001 	             	
        49.624	             	  4.296e-001 	
        49.663	  1.179e-001 	             	
        49.688	             	  4.296e-001 	
        49.727	  1.175e-001 	             	
        49.752	             	  4.298e-001 	
        49.791	  1.180e-001 	             	
        49.816	             	  4.299e-001 	
        49.855	  1.181e-001 	             	
        49.880	             	  4.299e-001 	
        49.951	  1.185e-001 	             	
        49.976	             	  4.298e-001 	
        50.015	  1.174e-001 	             	
        50.040	             	  4.298e-001 	
        50.079	  1.170e-001 	             	
        50.104	             	  4.297e-001 	
        50.143	  1.182e-001 	             	
        50.168	             	  4.296e-001 	
        50.207	  1.169e-001 	             	
        50.232	             	  4.297e-001 	
        50.271	  1.183e-001 	             	
        50.296	             	  4.298e-001 	
        50.335	  1.178e-001 	             	
        50.361	             	  4.299e-001 	
        50.399	  1.177e-001 	             	
        50.424	             	  4.299e-001 	
        50.463	  1.178e-001 	             	
        50.488	             	  4.300e-001 	
        50.527	  1.175e-001 	             	
        50.552	             	  4.301e-001 	
        50.591	  1.178e-001 	             	
        50.616	             	  4.301e-001 	
        50.655	  1.177e-001 	             	
        50.680	             	  4.301e-001 	
        50.751	  1.176e-001 	             	
        50.776	             	  4.300e-001 	
        50.816	  1.171e-001 	             	
        50.841	             	  4.300e-001 	
        50.880	  1.176e-001 	             	
        50.905	             	  4.300e-001 	
        50.944	  1.178e-001 	             	
        50.969	             	  4.301e-001 	
        51.008	  1.185e-001 	             	
        51.033	             	  4.301e-001 	
        51.072	  1.179e-001 	             	
        51.097	             	  4.300e-001 	
        51.136	  1.178e-001 	             	
        51.161	             	  4.299e-001 	
        51.200	  1.177e-001 	             	
        51.225	             	  4.299e-001 	
        51.264	  1.180e-001 	             	
        51.289	             	  4.298e-001 	
        51.328	  1.180e-001 	             	
        51.353	             	  4.298e-001 	
        51.392	  1.176e-001 	             	
        51.417	             	  4.297e-001 	
        51.456	  1.179e-001 	             	
        51.481	             	  4.297e-001 	
        51.552	  1.175e-001 	             	
        51.577	             	  4.297e-001 	
        51.616	  1.180e-001 	             	
        51.641	             	  4.297e-001 	
        51.680	  1.180e-001 	             	
        51.705	             	  4.297e-001 	
        51.744	  1.183e-001 	             	
        51.769	             	  4.297e-001 	
        51.808	  1.179e-001 	             	
        51.833	             	  4.296e-001 	
        51.872	  1.181e-001 	             	
        51.897	             	  4.296e-001 	
        51.936	  1.177e-001 	             	
        51.961	             	  4.296e-001 	
        52.000	  1.182e-001 	             	
        52.025	             	  4.295e-001 	
        52.064	  1.181e-001 	             	
        52.089	             	  4.295e-001 	
        52.128	  1.178e-001 	             	
        52.153	             	  4.295e-001 	
        52.192	  1.172e-001 	             	
        52.217	             	  4.295e-001 	
        52.256	  1.176e-001 	             	
        52.281	             	  4.294e-001 	
        52.352	  1.180e-001 	             	
        52.377	             	  4.294e-001 	
        52.416	  1.185e-001 	             	
        52.441	             	  4.294e-001 	
        52.480	  1.186e-001 	             	
        52.505	             	  4.294e-001 	
        52.544	  1.181e-001 	             	
        52.569	             	  4.294e-001 	
        52.608	  1.186e-001 	             	
        52.633	             	  4.293e-001 	
        52.672	  1.185e-001 	             	
        52.697	             	  4.293e-001 	
        52.736	  1.183e-001 	             	
        52.761	             	  4.293e-001 	
        52.800	  1.186e-001 	             	
        52.825	             	  4.292e-001 	
        52.864	  1.184e-001 	             	
        52.889	             	  4.291e-001 	
        52.928	  1.189e-001 	             	
        52.953	             	  4.291e-001 	
        52.992	  1.192e-001 	             	
        53.017	             	  4.291e-001 	
        53.056	  1.195e-001 	             	
        53.081	             	  4.291e-001 	
        53.152	  1.195e-001 	             	
        53.177	             	  4.292e-001 	
        53.216	  1.194e-001 	             	
        53.241	             	  4.292e-001 	
        53.280	  1.191e-001 	             	
        53.305	             	  4.292e-001 	
        53.344	  1.193e-001 	             	
        53.369	             	  4.291e-001 	
        53.408	  1.192e-001 	             	
        53.433	             	  4.291e-001 	
        53.472	  1.192e-001 	             	
        53.497	             	  4.292e-001 	
        53.536	  1.195e-001 	             	
        53.561	             	  4.292e-001 	
        53.600	  1.187e-001 	             	
        53.625	             	  4.292e-001 	
        53.664	  1.190e-001 	             	
        53.689	             	  4.292e-001 	
        53.728	  1.190e-001 	             	
        53.753	             	  4.292e-001 	
        53.792	  1.185e-001 	             	
        53.817	             	  4.292e-001 	
        53.856	  1.199e-001 	             	
        53.881	             	  4.292e-001 	
        53.952	  1.193e-001 	             	
        53.977	             	  4.292e-001 	
        54.016	  1.199e-001 	             	
        54.041	             	  4.291e-001 	
        54.080	  1.200e-001 	             	
        54.105	             	  4.291e-001 	
        54.144	  1.204e-001 	             	
        54.169	             	  4.292e-001 	
        54.208	  1.202e-001 	             	
        54.233	             	  4.292e-001 	
        54.272	  1.203e-001 	             	
        54.297	             	  4.291e-001 	
        54.336	  1.203e-001 	             	
        54.361	             	  4.291e-001 	
        54.400	  1.210e-001 	             	
        54.425	             	  4.291e-001 	
        54.464	  1.207e-001 	             	
        54.489	             	  4.291e-001 	
        54.528	  1.192e-001 	             	
        54.553	             	  4.291e-001 	
        54.592	  1.212e-001 	             	
        54.617	             	  4.290e-001 	
        54.656	  1.211e-001 	             	
        54.681	             	  4.290e-001 	
        54.752	  1.195e-001 	             	
        54.777	             	  4.289e-001 	
        54.816	  1.198e-001 	             	
        54.841	             	  4.290e-001 	
        54.880	  1.190e-001 	             	
        54.905	             	  4.290e-001 	
        54.944	  1.182e-001 	             	
        54.969	             	  4.289e-001 	
        55.008	  1.183e-001 	             	
        55.033	             	  4.289e-001 	
        55.072	  1.187e-001 	             	
        55.097	             	  4.290e-001 	
        55.136	  1.167e-001 	             	
        55.161	             	  4.289e-001 	
        55.200	  1.163e-001 	             	
        55.225	             	  4.289e-001 	
        55.264	  1.147e-001 	             	
        55.289	             	  4.288e-001 	
        55.328	  1.127e-001 	             	
        55.353	             	  4.288e-001 	
        55.392	  1.099e-001 	             	
        55.417	             	  4.289e-001 	
        55.456	  1.076e-001 	             	
        55.481	             	  4.290e-001 	
        55.520	  1.081e-001 	             	
        55.577	             	  4.291e-001 	
        55.616	  1.048e-001 	             	
        55.641	             	  4.292e-001 	
        55.680	  1.043e-001 	             	
        55.705	             	  4.293e-001 	
        55.744	  1.046e-001 	             	
        55.769	             	  4.293e-001 	
        55.808	  1.066e-001 	             	
        55.833	             	  4.292e-001 	
        55.872	  1.068e-001 	             	
        55.897	             	  4.290e-001 	
        55.936	  1.084e-001 	             	
        55.961	             	  4.290e-001 	
        56.000	  1.087e-001 	             	
        56.025	             	  4.290e-001 	
        56.064	  1.094e-001 	             	
        56.089	             	  4.290e-001 	
        56.128	  1.112e-001 	             	
        56.153	             	  4.290e-001 	
        56.192	  1.140e-001 	             	
        56.217	             	  4.290e-001 	
        56.256	  1.151e-001 	             	
        56.281	             	  4.289e-001 	
        56.320	  1.176e-001 	             	
        56.377	             	  4.289e-001 	
        56.416	  1.182e-001 	             	
        56.441	             	  4.288e-001 	
        56.480	  1.194e-001 	             	
        56.505	             	  4.289e-001 	
        56.544	  1.191e-001 	             	
        56.569	             	  4.289e-001 	
        56.608	  1.207e-001 	             	
        56.633	             	  4.289e-001 	
        56.672	  1.214e-001 	             	
        56.697	             	  4.289e-001 	
        56.736	  1.213e-001 	             	
        56.761	             	  4.289e-001 	
        56.800	  1.211e-001 	             	
        56.825	             	  4.289e-001 	
        56.864	  1.215e-001 	             	
        56.889	             	  4.290e-001 	
        56.928	  1.205e-001 	             	
        56.953	             	  4.290e-001 	
        56.992	  1.214e-001 	             	
        57.017	             	  4.289e-001 	
        57.056	  1.218e-001 	             	
        57.081	             	  4.289e-001 	
        57.120	  1.220e-001 	             	
        57.177	             	  4.290e-001 	
        57.216	  1.220e-001 	             	
        57.241	             	  4.290e-001 	
        57.280	  1.212e-001 	             	
        57.305	             	  4.290e-001 	
        57.344	  1.224e-001 	             	
        57.369	             	  4.291e-001 	
        57.408	  1.219e-001 	             	
        57.433	             	  4.292e-001 	
        57.472	  1.224e-001 	             	
        57.497	             	  4.292e-001 	
        57.536	  1.212e-001 	             	
        57.561	             	  4.292e-001 	
        57.600	  1.217e-001 	             	
        57.625	             	  4.292e-001 	
        57.664	  1.220e-001 	             	
        57.689	             	  4.291e-001 	
        57.728	  1.229e-001 	             	
        57.753	             	  4.290e-001 	
        57.792	  1.220e-001 	             	
        57.817	             	  4.291e-001 	
        57.856	  1.220e-001 	             	
        57.881	             	  4.291e-001 	
        57.920	  1.225e-001 	             	
        57.977	             	  4.292e-001 	
        58.016	  1.230e-001 	             	
        58.041	             	  4.292e-001 	
        58.080	  1.212e-001 	             	
        58.105	             	  4.292e-001 	
        58.144	  1.226e-001 	             	
        58.169	             	  4.293e-001 	
        58.208	  1.222e-001 	             	
        58.233	             	  4.293e-001 	
        58.272	  1.214e-001 	             	
        58.297	             	  4.293e-001 	
        58.336	  1.224e-001 	             	
        58.361	             	  4.292e-001 	
        58.400	  1.219e-001 	             	
        58.425	             	  4.292e-001 	
        58.464	  1.220e-001 	             	
        58.489	             	  4.292e-001 	
        58.528	  1.224e-001 	             	
        58.553	             	  4.292e-001 	
        58.592	  1.227e-001 	             	
        58.617	             	  4.293e-001 	
        58.656	  1.232e-001 	             	
        58.681	             	  4.294e-001 	
        58.720	  1.224e-001 	             	
        58.777	             	  4.295e-001 	
        58.816	  1.224e-001 	             	
        58.841	             	  4.297e-001 	
        58.880	  1.223e-001 	             	
        58.905	             	  4.299e-001 	
        58.944	  1.229e-001 	             	
        58.969	             	  4.300e-001 	
        59.008	  1.232e-001 	             	
        59.033	             	  4.300e-001 	
        59.072	  1.230e-001 	             	
        59.097	             	  4.300e-001 	
        59.136	  1.234e-001 	             	
        59.161	             	  4.300e-001 	
        59.200	  1.233e-001 	             	
        59.225	             	  4.299e-001 	
        59.264	  1.242e-001 	             	
        59.289	             	  4.299e-001 	
        59.328	  1.240e-001 	             	
        59.353	             	  4.299e-001 	
        59.392	  1.250e-001 	             	
        59.417	             	  4.300e-001 	
        59.456	  1.232e-001 	             	
        59.481	             	  4.301e-001 	
        59.520	  1.236e-001 	             	
        59.577	             	  4.301e-001 	
        59.616	  1.235e-001 	             	
        59.641	             	  4.301e-001 	
        59.680	  1.247e-001 	             	
        59.704	             	  4.302e-001 	
        59.744	  1.236e-001 	             	
        59.768	             	  4.303e-001 	
        59.808	  1.250e-001 	             	
        59.832	             	  4.303e-001 	
        59.872	  1.244e-001 	             	
        59.896	             	  4.303e-001 	
        59.936	  1.243e-001 	             	
        59.960	             	  4.303e-001 	
        60.000	  1.248e-001 	             	
        60.024	             	  4.303e-001 	
        60.064	  1.245e-001 	             	
        60.089	             	  4.303e-001 	
        60.128	  1.245e-001 	             	
        60.153	             	  4.302e-001 	
        60.192	  1.245e-001 	             	
        60.217	             	  4.303e-001 	
        60.256	  1.250e-001 	             	
        60.280	             	  4.303e-001 	
        60.320	  1.252e-001 	             	
        60.376	             	  4.304e-001 	
        60.416	  1.251e-001 	             	
        60.440	             	  4.303e-001 	
        60.480	  1.249e-001 	             	
        60.504	             	  4.303e-001 	
        60.544	  1.253e-001 	             	
        60.569	             	  4.303e-001 	
        60.608	  1.255e-001 	             	
        60.633	             	  4.303e-001 	
        60.672	  1.258e-001 	             	
        60.696	             	  4.303e-001 	
        60.736	  1.252e-001 	             	
        60.760	             	  4.303e-001 	
        60.800	  1.254e-001 	             	
        60.824	             	  4.303e-001 	
        60.864	  1.256e-001 	             	
        60.888	             	  4.302e-001 	
        60.928	  1.262e-001 	             	
        60.953	             	  4.302e-001 	
        60.992	  1.255e-001 	             	
        61.016	             	  4.302e-001 	
        61.056	  1.252e-001 	             	
        61.080	             	  4.302e-001 	
        61.120	  1.254e-001 	             	
        61.144	             	  4.303e-001 	
        61.216	  1.250e-001 	             	
        61.240	             	  4.304e-001 	
        61.280	  1.245e-001 	             	
        61.305	             	  4.305e-001 	
        61.344	  1.249e-001 	             	
        61.368	             	  4.305e-001 	
        61.408	  1.249e-001 	             	
        61.433	             	  4.306e-001 	
        61.472	  1.244e-001 	             	
        61.496	             	  4.306e-001 	
        61.536	  1.242e-001 	             	
        61.560	             	  4.307e-001 	
        61.600	  1.244e-001 	             	
        61.624	             	  4.307e-001 	
        61.664	  1.242e-001 	             	
        61.688	             	  4.308e-001 	
        61.728	  1.248e-001 	             	
        61.752	             	  4.308e-001 	
        61.792	  1.250e-001 	             	
        61.816	             	  4.307e-001 	
        61.856	  1.245e-001 	             	
        61.880	             	  4.307e-001 	
        61.920	  1.242e-001 	             	
        61.944	             	  4.306e-001 	
        62.016	  1.247e-001 	             	
        62.040	             	  4.306e-001 	
        62.080	  1.234e-001 	             	
        62.104	             	  4.306e-001 	
        62.144	  1.242e-001 	             	
        62.168	             	  4.306e-001 	
        62.208	  1.251e-001 	             	
        62.233	             	  4.305e-001 	
        62.272	  1.236e-001 	             	
        62.296	             	  4.304e-001 	
        62.336	  1.245e-001 	             	
        62.360	             	  4.304e-001 	
        62.400	  1.249e-001 	             	
        62.424	             	  4.303e-001 	
        62.464	  1.246e-001 	             	
        62.488	             	  4.302e-001 	
        62.528	  1.235e-001 	             	
        62.552	             	  4.301e-001 	
        62.592	  1.240e-001 	             	
        62.616	             	  4.301e-001 	
        62.656	  1.234e-001 	             	
        62.680	             	  4.302e-001 	
        62.720	  1.233e-001 	             	
        62.744	             	  4.303e-001 	
        62.816	  1.241e-001 	             	
        62.840	             	  4.304e-001 	
        62.880	  1.233e-001 	             	
        62.904	             	  4.305e-001 	
        62.944	  1.238e-001 	             	
        62.968	             	  4.305e-001 	
        63.008	  1.247e-001 	             	
        63.032	             	  4.305e-001 	
        63.072	  1.238e-001 	             	
        63.096	             	  4.305e-001 	
        63.136	  1.235e-001 	             	
        63.160	             	  4.304e-001 	
        63.200	  1.233e-001 	             	
        63.224	             	  4.305e-001 	
        63.264	  1.228e-001 	             	
        63.288	             	  4.304e-001 	
        63.328	  1.229e-001 	             	
        63.352	             	  4.304e-001 	
        63.392	  1.239e-001 	             	
        63.416	             	  4.303e-001 	
        63.456	  1.229e-001 	             	
        63.480	             	  4.303e-001 	
        63.520	  1.234e-001 	             	
        63.544	             	  4.301e-001 	
        63.616	  1.236e-001 	             	
        63.640	             	  4.301e-001 	
        63.680	  1.233e-001 	             	
        63.704	             	  4.301e-001 	
        63.744	  1.226e-001 	             	
        63.768	             	  4.301e-001 	
        63.808	  1.223e-001 	             	
        63.832	             	  4.301e-001 	
        63.872	  1.221e-001 	             	
        63.896	             	  4.302e-001 	
        63.936	  1.220e-001 	             	
        63.960	             	  4.302e-001 	
        64.000	  1.212e-001 	             	
        64.024	             	  4.303e-001 	
        64.064	  1.209e-001 	             	
        64.088	             	  4.304e-001 	
        64.128	  1.214e-001 	             	
        64.152	             	  4.303e-001 	
        64.192	  1.222e-001 	             	
        64.216	             	  4.303e-001 	
        64.256	  1.213e-001 	             	
        64.280	             	  4.302e-001 	
        64.320	  1.213e-001 	             	
        64.344	             	  4.302e-001 	
        64.416	  1.214e-001 	             	
        64.440	             	  4.302e-001 	
        64.480	  1.204e-001 	             	
        64.504	             	  4.301e-001 	
        64.543	  1.197e-001 	             	
        64.568	             	  4.301e-001 	
        64.607	  1.200e-001 	             	
        64.632	             	  4.301e-001 	
        64.672	  1.202e-001 	             	
        64.696	             	  4.301e-001 	
        64.736	  1.203e-001 	             	
        64.760	             	  4.301e-001 	
        64.800	  1.204e-001 	             	
        64.824	             	  4.301e-001 	
        64.863	  1.201e-001 	             	
        64.888	             	  4.302e-001 	
        64.927	  1.192e-001 	             	
        64.952	             	  4.303e-001 	
        64.991	  1.190e-001 	             	
        65.016	             	  4.304e-001 	
        65.056	  1.187e-001 	             	
        65.080	             	  4.304e-001 	
        65.119	  1.182e-001 	             	
        65.144	             	  4.303e-001 	
        65.215	  1.188e-001 	             	
        65.240	             	  4.302e-001 	
        65.279	  1.184e-001 	             	
        65.304	             	  4.302e-001 	
        65.343	  1.178e-001 	             	
        65.368	             	  4.303e-001 	
        65.407	  1.173e-001 	             	
        65.432	             	  4.303e-001 	
        65.471	  1.177e-001 	             	
        65.496	             	  4.303e-001 	
        65.536	  1.173e-001 	             	
        65.560	             	  4.303e-001 	
        65.599	  1.173e-001 	             	
        65.624	             	  4.303e-001 	
        65.663	  1.168e-001 	             	
        65.688	             	  4.303e-001 	
        65.727	  1.166e-001 	             	
        65.752	             	  4.304e-001 	
        65.791	  1.163e-001 	             	
        65.816	             	  4.305e-001 	
        65.855	  1.161e-001 	             	
        65.880	             	  4.305e-001 	
        65.919	  1.172e-001 	             	
        65.944	             	  4.304e-001 	
        66.015	  1.160e-001 	             	
        66.040	             	  4.304e-001 	
        66.079	  1.152e-001 	             	
        66.104	             	  4.303e-001 	
        66.143	  1.149e-001 	             	
        66.168	             	  4.302e-001 	
        66.207	  1.146e-001 	             	
        66.232	             	  4.301e-001 	
        66.271	  1.146e-001 	             	
        66.296	             	  4.301e-001 	
        66.335	  1.153e-001 	             	
        66.360	             	  4.300e-001 	
        66.399	  1.147e-001 	             	
        66.424	             	  4.300e-001 	
        66.463	  1.151e-001 	             	
        66.488	             	  4.300e-001 	
        66.527	  1.149e-001 	             	
        66.552	             	  4.301e-001 	
        66.591	  1.142e-001 	             	
        66.616	             	  4.302e-001 	
        66.655	  1.140e-001 	             	
        66.680	             	  4.303e-001 	
        66.719	  1.142e-001 	             	
        66.744	             	  4.303e-001 	
        66.815	  1.138e-001 	             	
        66.840	             	  4.303e-001 	
        66.879	  1.131e-001 	             	
        66.904	             	  4.303e-001 	
        66.943	  1.124e-001 	             	
        66.968	             	  4.302e-001 	
        67.007	  1.135e-001 	             	
        67.032	             	  4.302e-001 	
        67.071	  1.134e-001 	             	
        67.096	             	  4.301e-001 	
        67.135	  1.131e-001 	             	
        67.160	             	  4.301e-001 	
        67.199	  1.132e-001 	             	
        67.224	             	  4.302e-001 	
        67.263	  1.129e-001 	             	
        67.288	             	  4.302e-001 	
        67.327	  1.127e-001 	             	
        67.352	             	  4.303e-001 	
        67.391	  1.126e-001 	             	
        67.416	             	  4.303e-001 	
        67.455	  1.120e-001 	             	
        67.480	             	  4.303e-001 	
        67.519	  1.120e-001 	             	
        67.544	             	  4.303e-001 	
        67.615	  1.116e-001 	             	
        67.640	             	  4.303e-001 	
        67.679	  1.110e-001 	             	
        67.704	             	  4.302e-001 	
        67.743	  1.107e-001 	             	
        67.768	             	  4.303e-001 	
        67.807	  1.109e-001 	             	
        67.832	             	  4.302e-001 	
        67.871	  1.115e-001 	             	
        67.896	             	  4.302e-001 	
        67.935	  1.102e-001 	             	
        67.960	             	  4.302e-001 	
        67.999	  1.105e-001 	             	
        68.024	             	  4.301e-001 	
        68.063	  1.109e-001 	             	
        68.088	             	  4.301e-001 	
        68.127	  1.103e-001 	             	
        68.152	             	  4.301e-001 	
        68.191	  1.105e-001 	             	
        68.216	             	  4.300e-001 	
        68.255	  1.102e-001 	             	
        68.281	             	  4.300e-001 	
        68.320	  1.099e-001 	             	
        68.345	             	  4.300e-001 	
        68.384	  1.101e-001 	             	
        68.441	             	  4.300e-001 	
        68.480	  1.098e-001 	             	
        68.505	             	  4.299e-001 	
        68.544	  1.097e-001 	             	
        68.569	             	  4.299e-001 	
        68.608	  1.092e-001 	             	
        68.633	             	  4.298e-001 	
        68.672	  1.088e-001 	             	
        68.697	             	  4.298e-001 	
        68.736	  1.095e-001 	             	
        68.761	             	  4.298e-001 	
        68.800	  1.091e-001 	             	
        68.825	             	  4.297e-001 	
        68.864	  1.091e-001 	             	
        68.889	             	  4.297e-001 	
        68.928	  1.093e-001 	             	
        68.953	             	  4.297e-001 	
        68.992	  1.088e-001 	             	
        69.017	             	  4.297e-001 	
        69.056	  1.086e-001 	             	
        69.081	             	  4.298e-001 	
        69.120	  1.092e-001 	             	
        69.145	             	  4.297e-001 	
        69.184	  1.077e-001 	             	
        69.241	             	  4.298e-001 	
        69.280	  1.080e-001 	             	
        69.305	             	  4.298e-001 	
        69.344	  1.080e-001 	             	
        69.369	             	  4.299e-001 	
        69.408	  1.075e-001 	             	
        69.433	             	  4.299e-001 	
        69.472	  1.076e-001 	             	
        69.497	             	  4.298e-001 	
        69.536	  1.074e-001 	             	
        69.561	             	  4.298e-001 	
        69.600	  1.074e-001 	             	
        69.625	             	  4.299e-001 	
        69.664	  1.077e-001 	             	
        69.689	             	  4.298e-001 	
        69.728	  1.072e-001 	             	
        69.753	             	  4.298e-001 	
        69.792	  1.073e-001 	             	
        69.817	             	  4.299e-001 	
        69.856	  1.067e-001 	             	
        69.881	             	  4.300e-001 	
        69.920	  1.065e-001 	             	
        69.945	             	  4.300e-001 	
        69.984	  1.065e-001 	             	
        70.041	             	  4.299e-001 	
        70.080	  1.065e-001 	             	
        70.105	             	  4.299e-001 	
        70.144	  1.069e-001 	             	
        70.169	             	  4.298e-001 	
        70.208	  1.063e-001 	             	
        70.233	             	  4.298e-001 	
        70.272	  1.056e-001 	             	
        70.297	             	  4.299e-001 	
        70.336	  1.056e-001 	             	
        70.361	             	  4.299e-001 	
        70.400	  1.055e-001 	             	
        70.425	             	  4.299e-001 	
        70.464	  1.056e-001 	             	
        70.489	             	  4.299e-001 	
        70.528	  1.058e-001 	             	
        70.554	             	  4.298e-001 	
        70.592	  1.056e-001 	             	
        70.617	             	  4.298e-001 	
        70.656	  1.057e-001 	             	
        70.681	             	  4.298e-001 	
        70.720	  1.055e-001 	             	
        70.745	             	  4.298e-001 	
        70.784	  1.055e-001 	             	
        70.841	             	  4.297e-001 	
        70.880	  1.057e-001 	             	
        70.905	             	  4.297e-001 	
        70.944	  1.055e-001 	             	
        70.969	             	  4.297e-001 	
        71.008	  1.058e-001 	             	
        71.033	             	  4.298e-001 	
        71.072	  1.058e-001 	             	
        71.097	             	  4.299e-001 	
        71.136	  1.056e-001 	             	
        71.161	             	  4.299e-001 	
        71.200	  1.056e-001 	             	
        71.225	             	  4.299e-001 	
        71.264	  1.051e-001 	             	
        71.289	             	  4.298e-001 	
        71.328	  1.058e-001 	             	
        71.353	             	  4.298e-001 	
        71.392	  1.056e-001 	             	
        71.417	             	  4.297e-001 	
        71.456	  1.059e-001 	             	
        71.481	             	  4.297e-001 	
        71.520	  1.053e-001 	             	
        71.545	             	  4.297e-001 	
        71.584	  1.057e-001 	             	
        71.641	             	  4.297e-001 	
        71.680	  1.053e-001 	             	
        71.705	             	  4.298e-001 	
        71.744	  1.059e-001 	             	
        71.769	             	  4.299e-001 	
        71.808	  1.060e-001 	             	
        71.833	             	  4.299e-001 	
        71.872	  1.051e-001 	             	
        71.897	             	  4.300e-001 	
        71.936	  1.055e-001 	             	
        71.961	             	  4.301e-001 	
        72.000	  1.051e-001 	             	
        72.025	             	  4.301e-001 	
        72.064	  1.053e-001 	             	
        72.089	             	  4.301e-001 	
        72.128	  1.055e-001 	             	
        72.153	             	  4.301e-001 	
        72.192	  1.051e-001 	             	
        72.217	             	  4.300e-001 	
        72.256	  1.051e-001 	             	
        72.281	             	  4.299e-001 	
        72.320	  1.049e-001 	             	
        72.345	             	  4.300e-001 	
        72.384	  1.046e-001 	             	
        72.441	             	  4.299e-001 	
        72.480	  1.050e-001 	             	
        72.505	             	  4.300e-001 	
        72.544	  1.053e-001 	             	
        72.569	             	  4.300e-001 	
        72.608	  1.047e-001 	             	
        72.633	             	  4.300e-001 	
        72.672	  1.056e-001 	             	
        72.697	             	  4.299e-001 	
        72.736	  1.047e-001 	             	
        72.761	             	  4.300e-001 	
        72.800	  1.053e-001 	             	
        72.825	             	  4.300e-001 	
        72.864	  1.051e-001 	             	
        72.889	             	  4.301e-001 	
        72.928	  1.009e-001 	             	
        72.953	             	  4.301e-001 	
        72.992	  1.037e-001 	             	
        73.017	             	  4.301e-001 	
        73.056	  1.044e-001 	             	
        73.081	             	  4.302e-001 	
        73.120	  1.035e-001 	             	
        73.145	             	  4.303e-001 	
        73.184	  1.050e-001 	             	
        73.209	             	  4.303e-001 	
        73.280	  1.052e-001 	             	
        73.305	             	  4.303e-001 	
        73.344	  1.053e-001 	             	
        73.369	             	  4.303e-001 	
        73.408	  1.051e-001 	             	
        73.433	             	  4.303e-001 	
        73.472	  1.051e-001 	             	
        73.497	             	  4.303e-001 	
        73.536	  1.054e-001 	             	
        73.561	             	  4.303e-001 	
        73.600	  1.052e-001 	             	
        73.625	             	  4.302e-001 	
        73.664	  1.051e-001 	             	
        73.689	             	  4.302e-001 	
        73.728	  1.050e-001 	             	
        73.753	             	  4.302e-001 	
        73.792	  1.054e-001 	             	
        73.817	             	  4.302e-001 	
        73.856	  1.052e-001 	             	
        73.881	             	  4.302e-001 	
        73.920	  1.057e-001 	             	
        73.945	             	  4.302e-001 	
        73.984	  1.051e-001 	             	
        74.009	             	  4.302e-001 	
        74.080	  1.057e-001 	             	
        74.105	             	  4.302e-001 	
        74.144	  1.055e-001 	             	
        74.169	             	  4.302e-001 	
        74.208	  1.058e-001 	             	
        74.233	             	  4.301e-001 	
        74.272	  1.062e-001 	             	
        74.297	             	  4.301e-001 	
        74.336	  1.061e-001 	             	
        74.361	             	  4.300e-001 	
        74.400	  1.057e-001 	             	
        74.425	             	  4.300e-001 	
        74.464	  1.061e-001 	             	
        74.489	             	  4.300e-001 	
        74.528	  1.062e-001 	             	
        74.553	             	  4.300e-001 	
        74.592	  1.056e-001 	             	
        74.617	             	  4.301e-001 	
        74.656	  1.055e-001 	             	
        74.681	             	  4.303e-001 	
        74.720	  1.056e-001 	             	
        74.745	             	  4.304e-001 	
        74.784	  1.053e-001 	             	
        74.809	             	  4.305e-001 	
        74.880	  1.055e-001 	             	
        74.905	             	  4.305e-001 	
        74.944	  1.060e-001 	             	
        74.969	             	  4.305e-001 	
        75.008	  1.056e-001 	             	
        75.033	             	  4.306e-001 	
        75.072	  1.058e-001 	             	
        75.097	             	  4.307e-001 	
        75.136	  1.059e-001 	             	
        75.161	             	  4.308e-001 	
        75.200	  1.057e-001 	             	
        75.225	             	  4.307e-001 	
        75.264	  1.061e-001 	             	
        75.289	             	  4.308e-001 	
        75.328	  1.060e-001 	             	
        75.353	             	  4.308e-001 	
        75.392	  1.059e-001 	             	
        75.417	             	  4.308e-001 	
        75.456	  1.059e-001 	             	
        75.481	             	  4.308e-001 	
        75.520	  1.061e-001 	             	
        75.545	             	  4.308e-001 	
        75.584	  1.061e-001 	             	
        75.609	             	  4.309e-001 	
        75.680	  1.064e-001 	             	
        75.705	             	  4.309e-001 	
        75.744	  1.064e-001 	             	
        75.769	             	  4.309e-001 	
        75.808	  1.063e-001 	             	
        75.833	             	  4.308e-001 	
        75.872	  1.062e-001 	             	
        75.897	             	  4.307e-001 	
        75.936	  1.066e-001 	             	
        75.961	             	  4.307e-001 	
        76.000	  1.064e-001 	             	
        76.025	             	  4.307e-001 	
        76.064	  1.069e-001 	             	
        76.089	             	  4.307e-001 	
        76.128	  1.064e-001 	             	
        76.153	             	  4.307e-001 	
        76.192	  1.070e-001 	             	
        76.217	             	  4.307e-001 	
        76.256	  1.072e-001 	             	
        76.281	             	  4.307e-001 	
        76.320	  1.070e-001 	             	
        76.345	             	  4.307e-001 	
        76.384	  1.070e-001 	             	
        76.409	             	  4.307e-001 	
        76.480	  1.071e-001 	             	
        76.505	             	  4.307e-001 	
        76.544	  1.074e-001 	             	
        76.569	             	  4.308e-001 	
        76.608	  1.078e-001 	             	
        76.633	             	  4.308e-001 	
        76.672	  1.075e-001 	             	
        76.697	             	  4.307e-001 	
        76.736	  1.075e-001 	             	
        76.761	             	  4.307e-001 	
        76.800	  1.073e-001 	             	
        76.825	             	  4.307e-001 	
        76.864	  1.076e-001 	             	
        76.889	             	  4.308e-001 	
        76.928	  1.077e-001 	             	
        76.952	             	  4.307e-001 	
        76.992	  1.074e-001 	             	
        77.017	             	  4.307e-001 	
        77.056	  1.081e-001 	             	
        77.081	             	  4.307e-001 	
        77.120	  1.079e-001 	             	
        77.145	             	  4.307e-001 	
        77.184	  1.077e-001 	             	
        77.208	             	  4.307e-001 	
        77.280	  1.079e-001 	             	
        77.305	             	  4.306e-001 	
        77.344	  1.083e-001 	             	
        77.369	             	  4.305e-001 	
        77.408	  1.086e-001 	             	
        77.433	             	  4.305e-001 	
        77.472	  1.084e-001 	             	
        77.497	             	  4.305e-001 	
        77.536	  1.084e-001 	             	
        77.561	             	  4.306e-001 	
        77.600	  1.081e-001 	             	
        77.625	             	  4.306e-001 	
        77.664	  1.087e-001 	             	
        77.689	             	  4.307e-001 	
        77.728	  1.090e-001 	             	
        77.752	             	  4.307e-001 	
        77.792	  1.088e-001 	             	
        77.816	             	  4.307e-001 	
        77.856	  1.090e-001 	             	
        77.881	             	  4.307e-001 	
        77.920	  1.089e-001 	             	
        77.944	             	  4.306e-001 	
        77.984	  1.091e-001 	             	
        78.009	             	  4.307e-001 	
        78.080	  1.093e-001 	             	
        78.105	             	  4.307e-001 	
        78.144	  1.086e-001 	             	
        78.168	             	  4.308e-001 	
        78.208	  1.091e-001 	             	
        78.233	             	  4.307e-001 	
        78.272	  1.087e-001 	             	
        78.296	             	  4.307e-001 	
        78.336	  1.089e-001 	             	
        78.360	             	  4.307e-001 	
        78.400	  1.091e-001 	             	
        78.424	             	  4.307e-001 	
        78.464	  1.086e-001 	             	
        78.488	             	  4.306e-001 	
        78.528	  1.090e-001 	             	
        78.553	             	  4.305e-001 	
        78.592	  1.090e-001 	             	
        78.616	             	  4.304e-001 	
        78.656	  1.092e-001 	             	
        78.680	             	  4.304e-001 	
        78.720	  1.092e-001 	             	
        78.744	             	  4.303e-001 	
        78.784	  1.094e-001 	             	
        78.808	             	  4.302e-001 	
        78.880	  1.092e-001 	             	
        78.904	             	  4.302e-001 	
        78.944	  1.088e-001 	             	
        78.969	             	  4.302e-001 	
        79.008	  1.092e-001 	             	
        79.032	             	  4.302e-001 	
        79.072	  1.091e-001 	             	
        79.096	             	  4.301e-001 	
        79.136	  1.088e-001 	             	
        79.160	             	  4.301e-001 	
        79.200	  1.092e-001 	             	
        79.224	             	  4.301e-001 	
        79.264	  1.093e-001 	             	
        79.288	             	  4.301e-001 	
        79.328	  1.095e-001 	             	
        79.352	             	  4.301e-001 	
        79.392	  1.091e-001 	             	
        79.416	             	  4.301e-001 	
        79.456	  1.090e-001 	             	
        79.481	             	  4.301e-001 	
        79.520	  1.092e-001 	             	
        79.544	             	  4.301e-001 	
        79.584	  1.086e-001 	             	
        79.608	             	  4.302e-001 	
        79.680	  1.090e-001 	             	
        79.704	             	  4.302e-001 	
        79.744	  1.090e-001 	             	
        79.768	             	  4.303e-001 	
        79.808	  1.086e-001 	             	
        79.832	             	  4.302e-001 	
        79.872	  1.090e-001 	             	
        79.896	             	  4.302e-001 	
        79.936	  1.087e-001 	             	
        79.960	             	  4.301e-001 	
        80.000	  1.086e-001 	             	
        80.024	             	  4.300e-001 	
        80.064	  1.090e-001 	             	
        80.088	             	  4.299e-001 	
        80.128	  1.087e-001 	             	
        80.152	             	  4.299e-001 	
        80.192	  1.088e-001 	             	
        80.216	             	  4.298e-001 	
        80.256	  1.087e-001 	             	
        80.280	             	  4.298e-001 	
        80.320	  1.088e-001 	             	
        80.344	             	  4.298e-001 	
        80.384	  1.090e-001 	             	
        80.408	             	  4.298e-001 	
        80.480	  1.082e-001 	             	
        80.504	             	  4.298e-001 	
        80.544	  1.086e-001 	             	
        80.568	             	  4.298e-001 	
        80.608	  1.092e-001 	             	
        80.632	             	  4.298e-001 	
        80.672	  1.089e-001 	             	
        80.696	             	  4.299e-001 	
        80.736	  1.094e-001 	             	
        80.760	             	  4.299e-001 	
        80.800	  1.091e-001 	             	
        80.824	             	  4.300e-001 	
        80.864	  1.089e-001 	             	
        80.888	             	  4.301e-001 	
        80.928	  1.092e-001 	             	
        80.952	             	  4.301e-001 	
        80.992	  1.093e-001 	             	
        81.016	             	  4.300e-001 	
        81.056	  1.096e-001 	             	
        81.080	             	  4.300e-001 	
        81.119	  1.093e-001 	             	
        81.144	             	  4.299e-001 	
        81.183	  1.095e-001 	             	
        81.208	             	  4.299e-001 	
        81.248	  1.099e-001 	             	
        81.304	             	  4.298e-001 	
        81.343	  1.093e-001 	             	
        81.368	             	  4.298e-001 	
        81.407	  1.097e-001 	             	
        81.432	             	  4.298e-001 	
        81.471	  1.099e-001 	             	
        81.496	             	  4.298e-001 	
        81.536	  1.096e-001 	             	
        81.560	             	  4.297e-001 	
        81.600	  1.102e-001 	             	
        81.624	             	  4.296e-001 	
        81.664	  1.098e-001 	             	
        81.688	             	  4.296e-001 	
        81.728	  1.098e-001 	             	
        81.752	             	  4.296e-001 	
        81.791	  1.100e-001 	             	
        81.816	             	  4.296e-001 	
        81.856	  1.101e-001 	             	
        81.880	             	  4.296e-001 	
        81.919	  1.101e-001 	             	
        81.944	             	  4.295e-001 	
        81.983	  1.096e-001 	             	
        82.008	             	  4.295e-001 	
        82.048	  1.104e-001 	             	
        82.104	             	  4.294e-001 	
        82.144	  1.107e-001 	             	
        82.168	             	  4.293e-001 	
        82.207	  1.106e-001 	             	
        82.232	             	  4.292e-001 	
        82.271	  1.108e-001 	             	
        82.296	             	  4.292e-001 	
        82.335	  1.100e-001 	             	
        82.360	             	  4.292e-001 	
        82.400	  1.102e-001 	             	
        82.424	             	  4.293e-001 	
        82.463	  1.101e-001 	             	
        82.488	             	  4.294e-001 	
        82.527	  1.106e-001 	             	
        82.552	             	  4.295e-001 	
        82.592	  1.098e-001 	             	
        82.616	             	  4.296e-001 	
        82.655	  1.106e-001 	             	
        82.680	             	  4.297e-001 	
        82.720	  1.106e-001 	             	
        82.744	             	  4.297e-001 	
        82.783	  1.102e-001 	             	
        82.808	             	  4.298e-001 	
        82.847	  1.103e-001 	             	
        82.904	             	  4.297e-001 	
        82.944	  1.107e-001 	             	
        82.968	             	  4.297e-001 	
        83.007	  1.106e-001 	             	
        83.032	             	  4.298e-001 	
        83.071	  1.108e-001 	             	
        83.096	             	  4.299e-001 	
        83.135	  1.111e-001 	             	
        83.160	             	  4.300e-001 	
        83.199	  1.105e-001 	             	
        83.224	             	  4.301e-001 	
        83.263	  1.106e-001 	             	
        83.288	             	  4.300e-001 	
        83.327	  1.104e-001 	             	
        83.352	             	  4.299e-001 	
        83.391	  1.106e-001 	             	
        83.416	             	  4.297e-001 	
        83.455	  1.108e-001 	             	
        83.480	             	  4.296e-001 	
        83.519	  1.110e-001 	             	
        83.544	             	  4.296e-001 	
        83.583	  1.114e-001 	             	
        83.608	             	  4.296e-001 	
        83.647	  1.117e-001 	             	
        83.704	             	  4.297e-001 	
        83.743	  1.115e-001 	             	
        83.768	             	  4.297e-001 	
        83.807	  1.112e-001 	             	
        83.832	             	  4.297e-001 	
        83.871	  1.115e-001 	             	
        83.896	             	  4.297e-001 	
        83.936	  1.118e-001 	             	
        83.960	             	  4.297e-001 	
        84.000	  1.114e-001 	             	
        84.024	             	  4.297e-001 	
        84.063	  1.110e-001 	             	
        84.088	             	  4.298e-001 	
        84.127	  1.115e-001 	             	
        84.152	             	  4.298e-001 	
        84.191	  1.115e-001 	             	
        84.216	             	  4.298e-001 	
        84.255	  1.120e-001 	             	
        84.280	             	  4.297e-001 	
        84.319	  1.114e-001 	             	
        84.344	             	  4.298e-001 	
        84.383	  1.121e-001 	             	
        84.408	             	  4.297e-001 	
        84.447	  1.120e-001 	             	
        84.504	             	  4.297e-001 	
        84.543	  1.116e-001 	             	
        84.568	             	  4.297e-001 	
        84.607	  1.114e-001 	             	
        84.632	             	  4.297e-001 	
        84.671	  1.114e-001 	             	
        84.696	             	  4.297e-001 	
        84.735	  1.114e-001 	             	
        84.760	             	  4.297e-001 	
        84.799	  1.118e-001 	             	
        84.824	             	  4.297e-001 	
        84.863	  1.117e-001 	             	
        84.888	             	  4.296e-001 	
        84.927	  1.112e-001 	             	
        84.952	             	  4.296e-001 	
        84.991	  1.117e-001 	             	
        85.016	             	  4.296e-001 	
        85.055	  1.117e-001 	             	
        85.080	             	  4.296e-001 	
        85.119	  1.115e-001 	             	
        85.144	             	  4.297e-001 	
        85.183	  1.117e-001 	             	
        85.208	             	  4.297e-001 	
        85.247	  1.118e-001 	             	
        85.304	             	  4.297e-001 	
        85.343	  1.114e-001 	             	
        85.368	             	  4.297e-001 	
        85.407	  1.115e-001 	             	
        85.432	             	  4.298e-001 	
        85.471	  1.114e-001 	             	
        85.496	             	  4.298e-001 	
        85.535	  1.113e-001 	             	
        85.560	             	  4.298e-001 	
        85.599	  1.114e-001 	             	
        85.624	             	  4.298e-001 	
        85.663	  1.113e-001 	             	
        85.688	             	  4.298e-001 	
        85.727	  1.112e-001 	             	
        85.752	             	  4.298e-001 	
        85.792	  1.112e-001 	             	
        85.817	             	  4.298e-001 	
        85.856	  1.112e-001 	             	
        85.881	             	  4.297e-001 	
        85.920	  1.107e-001 	             	
        85.945	             	  4.296e-001 	
        85.984	  1.111e-001 	             	
        86.009	             	  4.295e-001 	
        86.048	  1.110e-001 	             	
        86.105	             	  4.294e-001 	
        86.144	  1.117e-001 	             	
        86.169	             	  4.293e-001 	
        86.208	  1.126e-001 	             	
        86.233	             	  4.292e-001 	
        86.272	  1.115e-001 	             	
        86.297	             	  4.292e-001 	
        86.336	  1.114e-001 	             	
        86.361	             	  4.291e-001 	
        86.400	  1.119e-001 	             	
        86.425	             	  4.292e-001 	
        86.464	  1.115e-001 	             	
        86.489	             	  4.292e-001 	
        86.528	  1.111e-001 	             	
        86.553	             	  4.293e-001 	
        86.592	  1.115e-001 	             	
        86.617	             	  4.293e-001 	
        86.656	  1.117e-001 	             	
        86.681	             	  4.293e-001 	
        86.720	  1.121e-001 	             	
        86.745	             	  4.294e-001 	
        86.784	  1.123e-001 	             	
        86.809	             	  4.294e-001 	
        86.848	  1.113e-001 	             	
        86.873	             	  4.295e-001 	
        86.944	  1.119e-001 	             	
        86.969	             	  4.296e-001 	
        87.008	  1.118e-001 	             	
        87.033	             	  4.296e-001 	
        87.072	  1.123e-001 	             	
        87.097	             	  4.295e-001 	
        87.136	  1.113e-001 	             	
        87.161	             	  4.295e-001 	
        87.200	  1.118e-001 	             	
        87.225	             	  4.295e-001 	
        87.264	  1.117e-001 	             	
        87.289	             	  4.295e-001 	
        87.328	  1.114e-001 	             	
        87.353	             	  4.295e-001 	
        87.392	  1.115e-001 	             	
        87.417	             	  4.295e-001 	
        87.456	  1.118e-001 	             	
        87.481	             	  4.295e-001 	
        87.520	  1.119e-001 	             	
        87.545	             	  4.294e-001 	
        87.584	  1.121e-001 	             	
        87.609	             	  4.295e-001 	
        87.648	  1.129e-001 	             	
        87.673	             	  4.296e-001 	
        87.744	  1.123e-001 	             	
        87.769	             	  4.297e-001 	
        87.808	  1.127e-001 	             	
        87.833	             	  4.298e-001 	
        87.872	  1.124e-001 	             	
        87.897	             	  4.300e-001 	
        87.936	  1.119e-001 	             	
        87.961	             	  4.302e-001 	
        88.000	  1.118e-001 	             	
        88.025	             	  4.303e-001 	
        88.064	  1.115e-001 	             	
        88.089	             	  4.303e-001 	
        88.128	  1.120e-001 	             	
        88.153	             	  4.303e-001 	
        88.192	  1.125e-001 	             	
        88.217	             	  4.303e-001 	
        88.256	  1.125e-001 	             	
        88.281	             	  4.304e-001 	
        88.320	  1.120e-001 	             	
        88.345	             	  4.304e-001 	
        88.384	  1.124e-001 	             	
        88.409	             	  4.305e-001 	
        88.448	  1.123e-001 	             	
        88.473	             	  4.306e-001 	
        88.544	  1.125e-001 	             	
        88.569	             	  4.306e-001 	
        88.608	  1.124e-001 	             	
        88.633	             	  4.306e-001 	
        88.672	  1.124e-001 	             	
        88.697	             	  4.306e-001 	
        88.736	  1.126e-001 	             	
        88.761	             	  4.306e-001 	
        88.800	  1.126e-001 	             	
        88.825	             	  4.305e-001 	
        88.864	  1.125e-001 	             	
        88.889	             	  4.305e-001 	
        88.928	  1.125e-001 	             	
        88.953	             	  4.305e-001 	
        88.992	  1.126e-001 	             	
        89.017	             	  4.304e-001 	
        89.056	  1.126e-001 	             	
        89.081	             	  4.304e-001 	
        89.120	  1.128e-001 	             	
        89.145	             	  4.303e-001 	
        89.184	  1.127e-001 	             	
        89.209	             	  4.303e-001 	
        89.248	  1.126e-001 	             	
        89.273	             	  4.303e-001 	
        89.344	  1.128e-001 	             	
        89.369	             	  4.303e-001 	
        89.408	  1.124e-001 	             	
        89.433	             	  4.304e-001 	
        89.472	  1.124e-001 	             	
        89.497	             	  4.303e-001 	
        89.536	  1.128e-001 	             	
        89.561	             	  4.303e-001 	
        89.600	  1.129e-001 	             	
        89.625	             	  4.303e-001 	
        89.664	  1.128e-001 	             	
        89.689	             	  4.303e-001 	
        89.728	  1.127e-001 	             	
        89.753	             	  4.304e-001 	
        89.792	  1.124e-001 	             	
        89.817	             	  4.304e-001 	
        89.856	  1.129e-001 	             	
        89.881	             	  4.304e-001 	
        89.920	  1.126e-001 	             	
        89.945	             	  4.304e-001 	
        89.984	  1.127e-001 	             	
        90.009	             	  4.303e-001 	
        90.048	  1.124e-001 	             	
        90.073	             	  4.302e-001 	
        90.144	  1.122e-001 	             	
        90.169	             	  4.301e-001 	
        90.208	  1.125e-001 	             	
        90.233	             	  4.301e-001 	
        90.272	  1.120e-001 	             	
        90.297	             	  4.302e-001 	
        90.336	  1.120e-001 	             	
        90.361	             	  4.302e-001 	
        90.400	  1.123e-001 	             	
        90.425	             	  4.302e-001 	
        90.464	  1.118e-001 	             	
        90.489	             	  4.302e-001 	
        90.528	  1.128e-001 	             	
        90.553	             	  4.302e-001 	
        90.592	  1.126e-001 	             	
        90.617	             	  4.302e-001 	
        90.656	  1.127e-001 	             	
        90.681	             	  4.302e-001 	
        90.720	  1.130e-001 	             	
        90.745	             	  4.301e-001 	
        90.784	  1.128e-001 	             	
        90.809	             	  4.301e-001 	
        90.848	  1.122e-001 	             	
        90.873	             	  4.301e-001 	
        90.944	  1.120e-001 	             	
        90.969	             	  4.301e-001 	
        91.008	  1.116e-001 	             	
        91.033	             	  4.301e-001 	
        91.072	  1.118e-001 	             	
        91.097	             	  4.300e-001 	
        91.136	  1.125e-001 	             	
        91.161	             	  4.299e-001 	
        91.200	  1.131e-001 	             	
        91.225	             	  4.298e-001 	
        91.264	  1.127e-001 	             	
        91.289	             	  4.296e-001 	
        91.328	  1.135e-001 	             	
        91.353	             	  4.295e-001 	
        91.392	  1.129e-001 	             	
        91.417	             	  4.294e-001 	
        91.456	  1.129e-001 	             	
        91.481	             	  4.295e-001 	
        91.520	  1.126e-001 	             	
        91.545	             	  4.296e-001 	
        91.584	  1.126e-001 	             	
        91.609	             	  4.297e-001 	
        91.648	  1.127e-001 	             	
        91.673	             	  4.297e-001 	
        91.744	  1.126e-001 	             	
        91.769	             	  4.297e-001 	
        91.808	  1.132e-001 	             	
        91.833	             	  4.298e-001 	
        91.872	  1.129e-001 	             	
        91.897	             	  4.298e-001 	
        91.936	  1.129e-001 	             	
        91.961	             	  4.298e-001 	
        92.000	  1.123e-001 	             	
        92.025	             	  4.299e-001 	
        92.064	  1.128e-001 	             	
        92.089	             	  4.299e-001 	
        92.128	  1.129e-001 	             	
        92.153	             	  4.299e-001 	
        92.192	  1.128e-001 	             	
        92.217	             	  4.299e-001 	
        92.256	  1.126e-001 	             	
        92.281	             	  4.299e-001 	
        92.320	  1.126e-001 	             	
        92.345	             	  4.299e-001 	
        92.384	  1.128e-001 	             	
        92.409	             	  4.299e-001 	
        92.448	  1.134e-001 	             	
        92.473	             	  4.298e-001 	
        92.544	  1.126e-001 	             	
        92.569	             	  4.298e-001 	
        92.608	  1.132e-001 	             	
        92.633	             	  4.298e-001 	
        92.672	  1.131e-001 	             	
        92.697	             	  4.300e-001 	
        92.736	  1.133e-001 	             	
        92.761	             	  4.301e-001 	
        92.800	  1.133e-001 	             	
        92.825	             	  4.301e-001 	
        92.864	  1.130e-001 	             	
        92.889	             	  4.301e-001 	
        92.928	  1.129e-001 	             	
        92.953	             	  4.301e-001 	
        92.992	  1.127e-001 	             	
        93.017	             	  4.300e-001 	
        93.056	  1.132e-001 	             	
        93.081	             	  4.299e-001 	
        93.120	  1.129e-001 	             	
        93.145	             	  4.299e-001 	
        93.184	  1.137e-001 	             	
        93.209	             	  4.298e-001 	
        93.248	  1.132e-001 	             	
        93.273	             	  4.299e-001 	
        93.344	  1.133e-001 	             	
        93.369	             	  4.299e-001 	
        93.408	  1.131e-001 	             	
        93.433	             	  4.299e-001 	
        93.472	  1.131e-001 	             	
        93.497	             	  4.299e-001 	
        93.536	  1.133e-001 	             	
        93.561	             	  4.300e-001 	
        93.600	  1.134e-001 	             	
        93.625	             	  4.300e-001 	
        93.664	  1.134e-001 	             	
        93.689	             	  4.300e-001 	
        93.728	  1.130e-001 	             	
        93.753	             	  4.300e-001 	
        93.792	  1.133e-001 	             	
        93.817	             	  4.300e-001 	
        93.856	  1.133e-001 	             	
        93.881	             	  4.300e-001 	
        93.920	  1.140e-001 	             	
        93.945	             	  4.300e-001 	
        93.984	  1.136e-001 	             	
        94.009	             	  4.300e-001 	
        94.048	  1.132e-001 	             	
        94.073	             	  4.300e-001 	
        94.112	  1.123e-001 	             	
        94.169	             	  4.300e-001 	
        94.208	  1.130e-001 	             	
        94.233	             	  4.300e-001 	
        94.272	  1.131e-001 	             	
        94.296	             	  4.299e-001 	
        94.336	  1.126e-001 	             	
        94.361	             	  4.299e-001 	
        94.400	  1.130e-001 	             	
        94.425	             	  4.298e-001 	
        94.464	  1.127e-001 	             	
        94.489	             	  4.297e-001 	
        94.528	  1.131e-001 	             	
        94.552	             	  4.297e-001 	
        94.592	  1.133e-001 	             	
        94.617	             	  4.296e-001 	
        94.656	  1.136e-001 	             	
        94.680	             	  4.296e-001 	
        94.720	  1.134e-001 	             	
        94.745	             	  4.296e-001 	
        94.784	  1.133e-001 	             	
        94.809	             	  4.297e-001 	
        94.848	  1.132e-001 	             	
        94.873	             	  4.297e-001 	
        94.912	  1.119e-001 	             	
        94.969	             	  4.297e-001 	
        95.008	  1.130e-001 	             	
        95.033	             	  4.297e-001 	
        95.072	  1.129e-001 	             	
        95.096	             	  4.297e-001 	
        95.136	  1.132e-001 	             	
        95.160	             	  4.297e-001 	
        95.200	  1.133e-001 	             	
        95.224	             	  4.297e-001 	
        95.264	  1.134e-001 	             	
        95.289	             	  4.297e-001 	
        95.328	  1.133e-001 	             	
        95.353	             	  4.298e-001 	
        95.392	  1.138e-001 	             	
        95.416	             	  4.298e-001 	
        95.456	  1.134e-001 	             	
        95.480	             	  4.299e-001 	
        95.520	  1.132e-001 	             	
        95.544	             	  4.301e-001 	
        95.584	  1.133e-001 	             	
        95.608	             	  4.302e-001 	
        95.648	  1.135e-001 	             	
        95.672	             	  4.303e-001 	
        95.712	  1.133e-001 	             	
        95.768	             	  4.302e-001 	
        95.808	  1.132e-001 	             	
        95.832	             	  4.302e-001 	
        95.872	  1.129e-001 	             	
        95.896	             	  4.302e-001 	
        95.936	  1.138e-001 	             	
        95.960	             	  4.302e-001 	
        96.000	  1.133e-001 	             	
        96.024	             	  4.302e-001 	
        96.064	  1.127e-001 	             	
        96.088	             	  4.301e-001 	
        96.128	  1.133e-001 	             	
        96.152	             	  4.301e-001 	
        96.192	  1.134e-001 	             	
        96.216	             	  4.301e-001 	
        96.256	  1.128e-001 	             	
        96.280	             	  4.301e-001 	
        96.320	  1.130e-001 	             	
        96.345	             	  4.301e-001 	
        96.384	  1.134e-001 	             	
        96.408	             	  4.301e-001 	
        96.448	  1.134e-001 	             	
        96.472	             	  4.302e-001 	
        96.512	  1.129e-001 	             	
        96.568	             	  4.302e-001 	
        96.608	  1.130e-001 	             	
        96.633	             	  4.302e-001 	
        96.672	  1.128e-001 	             	
        96.696	             	  4.302e-001 	
        96.736	  1.133e-001 	             	
        96.760	             	  4.302e-001 	
        96.800	  1.130e-001 	             	
        96.824	             	  4.302e-001 	
        96.864	  1.130e-001 	             	
        96.889	             	  4.303e-001 	
        96.928	  1.129e-001 	             	
        96.952	             	  4.302e-001 	
        96.992	  1.132e-001 	             	
        97.016	             	  4.302e-001 	
        97.056	  1.133e-001 	             	
        97.080	             	  4.301e-001 	
        97.120	  1.137e-001 	             	
        97.144	             	  4.300e-001 	
        97.184	  1.133e-001 	             	
        97.208	             	  4.300e-001 	
        97.248	  1.134e-001 	             	
        97.272	             	  4.299e-001 	
        97.312	  1.138e-001 	             	
        97.368	             	  4.298e-001 	
        97.408	  1.136e-001 	             	
        97.432	             	  4.298e-001 	
        97.472	  1.130e-001 	             	
        97.496	             	  4.299e-001 	
        97.536	  1.138e-001 	             	
        97.560	             	  4.300e-001 	
        97.600	  1.135e-001 	             	
        97.624	             	  4.301e-001 	
        97.664	  1.140e-001 	             	
        97.688	             	  4.301e-001 	
        97.728	  1.143e-001 	             	
        97.752	             	  4.302e-001 	
        97.792	  1.138e-001 	             	
        97.816	             	  4.302e-001 	
        97.856	  1.143e-001 	             	
        97.880	             	  4.302e-001 	
        97.920	  1.128e-001 	             	
        97.944	             	  4.302e-001 	
        97.984	  1.128e-001 	             	
        98.008	             	  4.301e-001 	
        98.048	  1.133e-001 	             	
        98.072	             	  4.300e-001 	
        98.112	  1.135e-001 	             	
        98.168	             	  4.300e-001 	
        98.208	  1.137e-001 	             	
        98.232	             	  4.300e-001 	
        98.272	  1.137e-001 	             	
        98.296	             	  4.300e-001 	
        98.336	  1.139e-001 	             	
        98.360	             	  4.300e-001 	
        98.400	  1.134e-001 	             	
        98.424	             	  4.301e-001 	
        98.464	  1.136e-001 	             	
        98.488	             	  4.301e-001 	
        98.528	  1.140e-001 	             	
        98.552	             	  4.302e-001 	
        98.592	  1.130e-001 	             	
        98.616	             	  4.302e-001 	
        98.656	  1.137e-001 	             	
        98.680	             	  4.303e-001 	
        98.720	  1.137e-001 	             	
        98.744	             	  4.303e-001 	
        98.783	  1.136e-001 	             	
        98.808	             	  4.304e-001 	
        98.848	  1.138e-001 	             	
        98.872	             	  4.304e-001 	
        98.912	  1.133e-001 	             	
        98.936	             	  4.305e-001 	
        99.008	  1.133e-001 	             	
        99.032	             	  4.305e-001 	
        99.072	  1.132e-001 	             	
        99.096	             	  4.306e-001 	
        99.136	  1.132e-001 	             	
        99.160	             	  4.306e-001 	
        99.200	  1.135e-001 	             	
        99.224	             	  4.306e-001 	
        99.264	  1.130e-001 	             	
        99.288	             	  4.307e-001 	
        99.328	  1.131e-001 	             	
        99.352	             	  4.307e-001 	
        99.392	  1.135e-001 	             	
        99.416	             	  4.306e-001 	
        99.456	  1.131e-001 	             	
        99.480	             	  4.306e-001 	
        99.520	  1.133e-001 	             	
        99.544	             	  4.304e-001 	
        99.584	  1.129e-001 	             	
        99.608	             	  4.304e-001 	
        99.648	  1.133e-001 	             	
        99.672	             	  4.303e-001 	
        99.711	  1.131e-001 	             	
        99.736	             	  4.302e-001 	
        99.808	  1.132e-001 	             	
        99.832	             	  4.302e-001 	
        99.872	  1.132e-001 	             	
        99.896	             	  4.303e-001 	
        99.936	  1.136e-001 	             	
        99.960	             	  4.303e-001 	
        99.999	  1.131e-001 	             	
       100.024	             	  4.304e-001 	
       100.063	  1.129e-001 	             	
       100.088	             	  4.303e-001 	
       100.127	  1.139e-001 	             	
       100.152	             	  4.302e-001 	
       100.192	  1.132e-001 	             	
       100.216	             	  4.302e-001 	
       100.255	  1.132e-001 	             	
       100.280	             	  4.303e-001 	
       100.319	  1.130e-001 	             	
       100.344	             	  4.303e-001 	
       100.383	  1.130e-001 	             	
       100.408	             	  4.303e-001 	
       100.447	  1.137e-001 	             	
       100.472	             	  4.303e-001 	
       100.511	  1.131e-001 	             	
       100.536	             	  4.302e-001 	
       100.607	  1.138e-001 	             	
       100.632	             	  4.301e-001 	
       100.671	  1.126e-001 	             	
       100.696	             	  4.301e-001 	
       100.735	  1.138e-001 	             	
       100.760	             	  4.301e-001 	
       100.799	  1.129e-001 	             	
       100.824	             	  4.301e-001 	
       100.863	  1.133e-001 	             	
       100.888	             	  4.301e-001 	
       100.927	  1.138e-001 	             	
       100.952	             	  4.300e-001 	
       100.991	  1.140e-001 	             	
       101.016	             	  4.300e-001 	
       101.055	  1.126e-001 	             	
       101.080	             	  4.301e-001 	
       101.119	  1.136e-001 	             	
       101.144	             	  4.300e-001 	
       101.183	  1.135e-001 	             	
       101.208	             	  4.300e-001 	
       101.247	  1.128e-001 	             	
       101.272	             	  4.299e-001 	
       101.311	  1.124e-001 	             	
       101.336	             	  4.299e-001 	
       101.408	  1.131e-001 	             	
       101.432	             	  4.298e-001 	
       101.471	  1.132e-001 	             	
       101.496	             	  4.297e-001 	
       101.535	  1.136e-001 	             	
       101.560	             	  4.297e-001 	
       101.599	  1.131e-001 	             	
       101.624	             	  4.297e-001 	
       101.663	  1.133e-001 	             	
       101.688	             	  4.297e-001 	
       101.727	  1.132e-001 	             	
       101.752	             	  4.297e-001 	
       101.792	  1.129e-001 	             	
       101.816	             	  4.297e-001 	
       101.855	  1.138e-001 	             	
       101.880	             	  4.298e-001 	
       101.919	  1.134e-001 	             	
       101.944	             	  4.299e-001 	
       101.983	  1.132e-001 	             	
       102.008	             	  4.298e-001 	
       102.047	  1.134e-001 	             	
       102.072	             	  4.298e-001 	
       102.111	  1.135e-001 	             	
       102.136	             	  4.298e-001 	
       102.207	  1.132e-001 	             	
       102.232	             	  4.298e-001 	
       102.271	  1.134e-001 	             	
       102.296	             	  4.299e-001 	
       102.335	  1.136e-001 	             	
       102.360	             	  4.300e-001 	
       102.399	  1.140e-001 	             	
       102.424	             	  4.301e-001 	
       102.463	  1.126e-001 	             	
       102.488	             	  4.302e-001 	
       102.527	  1.132e-001 	             	
       102.552	             	  4.303e-001 	
       102.591	  1.137e-001 	             	
       102.616	             	  4.302e-001 	
       102.655	  1.135e-001 	             	
       102.680	             	  4.301e-001 	
       102.719	  1.134e-001 	             	
       102.744	             	  4.300e-001 	
       102.783	  1.138e-001 	             	
       102.808	             	  4.300e-001 	
       102.847	  1.136e-001 	             	
       102.872	             	  4.300e-001 	
       102.911	  1.136e-001 	             	
       102.936	             	  4.301e-001 	
       103.007	  1.137e-001 	             	
       103.032	             	  4.301e-001 	
       103.071	  1.133e-001 	             	
       103.096	             	  4.300e-001 	
       103.135	  1.134e-001 	             	
       103.160	             	  4.301e-001 	
       103.199	  1.134e-001 	             	
       103.224	             	  4.302e-001 	
       103.264	  1.135e-001 	             	
       103.289	             	  4.302e-001 	
       103.328	  1.139e-001 	             	
       103.353	             	  4.302e-001 	
       103.392	  1.138e-001 	             	
       103.417	             	  4.302e-001 	
       103.456	  1.139e-001 	             	
       103.481	             	  4.302e-001 	
       103.520	  1.134e-001 	             	
       103.545	             	  4.303e-001 	
       103.584	  1.135e-001 	             	
       103.609	             	  4.303e-001 	
       103.648	  1.140e-001 	             	
       103.673	             	  4.303e-001 	
       103.712	  1.133e-001 	             	
       103.737	             	  4.303e-001 	
       103.808	  1.136e-001 	             	
       103.833	             	  4.304e-001 	
       103.872	  1.136e-001 	             	
       103.897	             	  4.305e-001 	
       103.936	  1.138e-001 	             	
       103.961	             	  4.305e-001 	
       104.000	  1.136e-001 	             	
       104.025	             	  4.305e-001 	
       104.064	  1.131e-001 	             	
       104.089	             	  4.305e-001 	
       104.128	  1.134e-001 	             	
       104.153	             	  4.305e-001 	
       104.192	  1.133e-001 	             	
       104.217	             	  4.305e-001 	
       104.256	  1.132e-001 	             	
       104.281	             	  4.306e-001 	
       104.320	  1.132e-001 	             	
       104.345	             	  4.306e-001 	
       104.384	  1.132e-001 	             	
       104.409	             	  4.307e-001 	
       104.448	  1.138e-001 	             	
       104.473	             	  4.307e-001 	
       104.512	  1.130e-001 	             	
       104.537	             	  4.308e-001 	
       104.608	  1.123e-001 	             	
       104.633	             	  4.307e-001 	
       104.672	  1.133e-001 	             	
       104.697	             	  4.308e-001 	
       104.736	  1.135e-001 	             	
       104.761	             	  4.308e-001 	
       104.800	  1.128e-001 	             	
       104.825	             	  4.309e-001 	
       104.864	  1.132e-001 	             	
       104.889	             	  4.308e-001 	
       104.928	  1.136e-001 	             	
       104.953	             	  4.308e-001 	
       104.992	  1.129e-001 	             	
       105.017	             	  4.308e-001 	
       105.056	  1.130e-001 	             	
       105.081	             	  4.307e-001 	
       105.120	  1.130e-001 	             	
       105.145	             	  4.307e-001 	
       105.184	  1.134e-001 	             	
       105.209	             	  4.307e-001 	
       105.248	  1.139e-001 	             	
       105.273	             	  4.308e-001 	
       105.312	  1.126e-001 	             	
       105.337	             	  4.308e-001 	
       105.408	  1.131e-001 	             	
       105.433	             	  4.308e-001 	
       105.472	  1.125e-001 	             	
       105.497	             	  4.308e-001 	
       105.536	  1.131e-001 	             	
       105.561	             	  4.308e-001 	
       105.600	  1.124e-001 	             	
       105.625	             	  4.307e-001 	
       105.664	  1.126e-001 	             	
       105.689	             	  4.307e-001 	
       105.728	  1.133e-001 	             	
       105.753	             	  4.307e-001 	
       105.792	  1.132e-001 	             	
       105.817	             	  4.307e-001 	
       105.856	  1.131e-001 	             	
       105.881	             	  4.307e-001 	
       105.920	  1.132e-001 	             	
       105.945	             	  4.307e-001 	
       105.984	  1.131e-001 	             	
       106.009	             	  4.307e-001 	
       106.048	  1.128e-001 	             	
       106.073	             	  4.307e-001 	
       106.112	  1.135e-001 	             	
       106.137	             	  4.306e-001 	
       106.208	  1.134e-001 	             	
       106.233	             	  4.306e-001 	
       106.272	  1.132e-001 	             	
       106.297	             	  4.306e-001 	
       106.336	  1.135e-001 	             	
       106.361	             	  4.305e-001 	
       106.400	  1.130e-001 	             	
       106.425	             	  4.305e-001 	
       106.464	  1.140e-001 	             	
       106.489	             	  4.304e-001 	
       106.528	  1.132e-001 	             	
       106.553	             	  4.304e-001 	
       106.592	  1.129e-001 	             	
       106.617	             	  4.304e-001 	
       106.656	  1.134e-001 	             	
       106.681	             	  4.304e-001 	
       106.720	  1.134e-001 	             	
       106.745	             	  4.304e-001 	
       106.784	  1.135e-001 	             	
       106.809	             	  4.304e-001 	
       106.848	  1.135e-001 	             	
       106.873	             	  4.305e-001 	
       106.912	  1.128e-001 	             	
       106.937	             	  4.306e-001 	
       107.008	  1.132e-001 	             	
       107.033	             	  4.307e-001 	
       107.072	  1.141e-001 	             	
       107.097	             	  4.307e-001 	
       107.136	  1.133e-001 	             	
       107.161	             	  4.307e-001 	
       107.200	  1.134e-001 	             	
       107.225	             	  4.306e-001 	
       107.264	  1.132e-001 	             	
       107.289	             	  4.306e-001 	
       107.328	  1.129e-001 	             	
       107.353	             	  4.306e-001 	
       107.392	  1.126e-001 	             	
       107.417	             	  4.306e-001 	
       107.456	  1.130e-001 	             	
       107.481	             	  4.306e-001 	
       107.520	  1.135e-001 	             	
       107.545	             	  4.305e-001 	
       107.584	  1.126e-001 	             	
       107.609	             	  4.305e-001 	
       107.648	  1.131e-001 	             	
       107.673	             	  4.304e-001 	
       107.712	  1.136e-001 	             	
       107.737	             	  4.303e-001 	
       107.776	  1.131e-001 	             	
       107.833	             	  4.303e-001 	
       107.872	  1.131e-001 	             	
       107.897	             	  4.303e-001 	
       107.936	  1.137e-001 	             	
       107.961	             	  4.303e-001 	
       108.000	  1.137e-001 	             	
       108.025	             	  4.303e-001 	
       108.064	  1.134e-001 	             	
       108.089	             	  4.304e-001 	
       108.128	  1.123e-001 	             	
       108.153	             	  4.304e-001 	
       108.192	  1.134e-001 	             	
       108.217	             	  4.304e-001 	
       108.256	  1.127e-001 	             	
       108.281	             	  4.304e-001 	
       108.320	  1.137e-001 	             	
       108.345	             	  4.304e-001 	
       108.384	  1.133e-001 	             	
       108.409	             	  4.304e-001 	
       108.448	  1.136e-001 	             	
       108.473	             	  4.304e-001 	
       108.512	  1.137e-001 	             	
       108.537	             	  4.304e-001 	
       108.576	  1.136e-001 	             	
       108.633	             	  4.304e-001 	
       108.672	  1.131e-001 	             	
       108.697	             	  4.304e-001 	
       108.736	  1.136e-001 	             	
       108.761	             	  4.304e-001 	
       108.800	  1.140e-001 	             	
       108.825	             	  4.304e-001 	
       108.864	  1.127e-001 	             	
       108.889	             	  4.304e-001 	
       108.928	  1.137e-001 	             	
       108.953	             	  4.304e-001 	
       108.992	  1.135e-001 	             	
       109.017	             	  4.304e-001 	
       109.056	  1.131e-001 	             	
       109.081	             	  4.303e-001 	
       109.120	  1.136e-001 	             	
       109.145	             	  4.303e-001 	
       109.184	  1.135e-001 	             	
       109.209	             	  4.302e-001 	
       109.248	  1.136e-001 	             	
       109.273	             	  4.301e-001 	
       109.312	  1.136e-001 	             	
       109.337	             	  4.301e-001 	
       109.376	  1.135e-001 	             	
       109.433	             	  4.302e-001 	
       109.472	  1.136e-001 	             	
       109.497	             	  4.303e-001 	
       109.536	  1.136e-001 	             	
       109.561	             	  4.303e-001 	
       109.600	  1.139e-001 	             	
       109.625	             	  4.304e-001 	
       109.664	  1.130e-001 	             	
       109.689	             	  4.304e-001 	
       109.728	  1.131e-001 	             	
       109.753	             	  4.304e-001 	
       109.792	  1.139e-001 	             	
       109.817	             	  4.304e-001 	
       109.856	  1.138e-001 	             	
       109.881	             	  4.304e-001 	
       109.920	  1.130e-001 	             	
       109.945	             	  4.304e-001 	
       109.984	  1.135e-001 	             	
       110.009	             	  4.303e-001 	
       110.048	  1.137e-001 	             	
       110.073	             	  4.303e-001 	
       110.112	  1.137e-001 	             	
       110.137	             	  4.302e-001 	
       110.176	  1.135e-001 	             	
       110.233	             	  4.302e-001 	
       110.272	  1.137e-001 	             	
       110.297	             	  4.303e-001 	
       110.336	  1.131e-001 	             	
       110.361	             	  4.304e-001 	
       110.400	  1.129e-001 	             	
       110.425	             	  4.304e-001 	
       110.464	  1.138e-001 	             	
       110.489	             	  4.304e-001 	
       110.528	  1.132e-001 	             	
       110.555	             	  4.303e-001 	
       110.592	  1.132e-001 	             	
       110.617	             	  4.304e-001 	
       110.656	  1.134e-001 	             	
       110.681	             	  4.304e-001 	
       110.720	  1.130e-001 	             	
       110.745	             	  4.304e-001 	
       110.784	  1.133e-001 	             	
       110.809	             	  4.304e-001 	
       110.848	  1.131e-001 	             	
       110.873	             	  4.304e-001 	
       110.912	  1.130e-001 	             	
       110.937	             	  4.304e-001 	
       110.976	  1.138e-001 	             	
       111.033	             	  4.303e-001 	
       111.072	  1.134e-001 	             	
       111.097	             	  4.302e-001 	
       111.136	  1.139e-001 	             	
       111.161	             	  4.302e-001 	
       111.200	  1.137e-001 	             	
       111.225	             	  4.301e-001 	
       111.264	  1.138e-001 	             	
