;PC Software:StarLab Version 2.10 Build 25
;Logged:22/09/2022 at 16:26:43
;File Version:3
;Graph Type:Line
;Notes:                                                            

;Channel A:Nova II Photodiode PD300-3W-v1 (s/n:763106)  NN2.52 (s/n:767396)
;Channel B:Vega Thermopile 10A-V1.1 (s/n:693380)  VG2.44 (s/n:858327)

;Channel A:Details
;Name:PD300-3W-v1
;Graph Color:RGB(0,102,255)
;Units:W
;Settings:Measuring:Power
;Settings:Wavelength:1064
;Settings:Range:AUTO
;Settings:Filter:IN

;Channel B:Details
;Name:10A-V1.1
;Graph Color:RGB(154,0,0)
;Units:W
;Settings:Measuring:Power
;Settings:Laser:.8-6
;Settings:Range:AUTO
;--------------------


;First Pulse Arrived : 22/09/2022 at 16:26:43.529000
  Timestamp   	  Channel A  	  Channel B  	
         0.000	  3.640e-002 	             	
         0.057	             	  1.023e+000 	
         0.064	  3.640e-002 	             	
         0.120	             	  1.022e+000 	
         0.128	  3.660e-002 	             	
         0.185	             	  1.022e+000 	
         0.192	  3.650e-002 	             	
         0.248	             	  1.022e+000 	
         0.256	  3.650e-002 	             	
         0.312	             	  1.022e+000 	
         0.320	  3.650e-002 	             	
         0.376	             	  1.022e+000 	
         0.384	  3.650e-002 	             	
         0.448	  3.650e-002 	             	
         0.472	             	  1.022e+000 	
         0.512	  3.650e-002 	             	
         0.536	             	  1.022e+000 	
         0.600	             	  1.022e+000 	
         0.608	  3.660e-002 	             	
         0.665	             	  1.023e+000 	
         0.672	  3.640e-002 	             	
         0.728	             	  1.023e+000 	
         0.736	  3.640e-002 	             	
         0.792	             	  1.023e+000 	
         0.800	  3.640e-002 	             	
         0.856	             	  1.023e+000 	
         0.864	  3.640e-002 	             	
         0.920	             	  1.023e+000 	
         0.928	  3.640e-002 	             	
         0.984	             	  1.023e+000 	
         0.992	  3.650e-002 	             	
         1.048	             	  1.023e+000 	
         1.056	  3.650e-002 	             	
         1.112	             	  1.023e+000 	
         1.120	  3.640e-002 	             	
         1.176	             	  1.023e+000 	
         1.184	  3.640e-002 	             	
         1.248	  3.640e-002 	             	
         1.272	             	  1.023e+000 	
         1.312	  3.640e-002 	             	
         1.336	             	  1.023e+000 	
         1.400	             	  1.023e+000 	
         1.408	  3.640e-002 	             	
         1.464	             	  1.022e+000 	
         1.472	  3.650e-002 	             	
         1.528	             	  1.022e+000 	
         1.536	  3.650e-002 	             	
         1.592	             	  1.022e+000 	
         1.600	  3.640e-002 	             	
         1.656	             	  1.022e+000 	
         1.664	  3.650e-002 	             	
         1.720	             	  1.022e+000 	
         1.728	  3.660e-002 	             	
         1.784	             	  1.022e+000 	
         1.792	  3.650e-002 	             	
         1.848	             	  1.022e+000 	
         1.856	  3.660e-002 	             	
         1.912	             	  1.022e+000 	
         1.920	  3.680e-002 	             	
         1.976	             	  1.022e+000 	
         1.984	  3.680e-002 	             	
         2.048	  3.650e-002 	             	
         2.072	             	  1.022e+000 	
         2.112	  3.660e-002 	             	
         2.136	             	  1.023e+000 	
         2.200	             	  1.023e+000 	
         2.208	  3.670e-002 	             	
         2.264	             	  1.023e+000 	
         2.272	  3.660e-002 	             	
         2.328	             	  1.023e+000 	
         2.336	  3.650e-002 	             	
         2.392	             	  1.023e+000 	
         2.400	  3.660e-002 	             	
         2.456	             	  1.023e+000 	
         2.464	  3.650e-002 	             	
         2.520	             	  1.023e+000 	
         2.528	  3.650e-002 	             	
         2.584	             	  1.023e+000 	
         2.592	  3.650e-002 	             	
         2.648	             	  1.023e+000 	
         2.656	  3.640e-002 	             	
         2.712	             	  1.022e+000 	
         2.720	  3.660e-002 	             	
         2.776	             	  1.022e+000 	
         2.784	  3.650e-002 	             	
         2.848	  3.660e-002 	             	
         2.872	             	  1.023e+000 	
         2.912	  3.660e-002 	             	
         2.936	             	  1.023e+000 	
         3.000	             	  1.023e+000 	
         3.008	  3.650e-002 	             	
         3.064	             	  1.023e+000 	
         3.071	  3.640e-002 	             	
         3.128	             	  1.023e+000 	
         3.136	  3.640e-002 	             	
         3.192	             	  1.023e+000 	
         3.199	  3.660e-002 	             	
         3.256	             	  1.023e+000 	
         3.264	  3.650e-002 	             	
         3.320	             	  1.023e+000 	
         3.328	  3.650e-002 	             	
         3.384	             	  1.023e+000 	
         3.391	  3.650e-002 	             	
         3.448	             	  1.022e+000 	
         3.456	  3.660e-002 	             	
         3.512	             	  1.023e+000 	
         3.520	  3.650e-002 	             	
         3.576	             	  1.023e+000 	
         3.584	  3.660e-002 	             	
         3.648	  3.650e-002 	             	
         3.672	             	  1.023e+000 	
         3.712	  3.640e-002 	             	
         3.736	             	  1.023e+000 	
         3.800	             	  1.023e+000 	
         3.807	  3.640e-002 	             	
         3.864	             	  1.023e+000 	
         3.872	  3.660e-002 	             	
         3.928	             	  1.023e+000 	
         3.935	  3.650e-002 	             	
         3.992	             	  1.023e+000 	
         3.999	  3.640e-002 	             	
         4.056	             	  1.023e+000 	
         4.063	  3.650e-002 	             	
         4.120	             	  1.023e+000 	
         4.127	  3.650e-002 	             	
         4.184	             	  1.023e+000 	
         4.192	  3.640e-002 	             	
         4.248	             	  1.023e+000 	
         4.255	  3.650e-002 	             	
         4.312	             	  1.023e+000 	
         4.319	  3.650e-002 	             	
         4.376	             	  1.023e+000 	
         4.383	  3.630e-002 	             	
         4.447	  3.650e-002 	             	
         4.472	             	  1.023e+000 	
         4.511	  3.650e-002 	             	
         4.536	             	  1.023e+000 	
         4.600	             	  1.022e+000 	
         4.607	  3.650e-002 	             	
         4.664	             	  1.023e+000 	
         4.671	  3.640e-002 	             	
         4.728	             	  1.023e+000 	
         4.735	  3.630e-002 	             	
         4.792	             	  1.023e+000 	
         4.799	  3.660e-002 	             	
         4.856	             	  1.023e+000 	
         4.863	  3.640e-002 	             	
         4.920	             	  1.023e+000 	
         4.927	  3.640e-002 	             	
         4.984	             	  1.023e+000 	
         4.991	  3.620e-002 	             	
         5.048	             	  1.023e+000 	
         5.055	  3.640e-002 	             	
         5.112	             	  1.022e+000 	
         5.119	  3.660e-002 	             	
         5.176	             	  1.022e+000 	
         5.183	  3.630e-002 	             	
         5.247	  3.650e-002 	             	
         5.272	             	  1.022e+000 	
         5.312	  3.630e-002 	             	
         5.336	             	  1.022e+000 	
         5.400	             	  1.022e+000 	
         5.407	  3.620e-002 	             	
         5.464	             	  1.022e+000 	
         5.471	  3.640e-002 	             	
         5.528	             	  1.022e+000 	
         5.535	  3.650e-002 	             	
         5.592	             	  1.022e+000 	
         5.599	  3.660e-002 	             	
         5.656	             	  1.022e+000 	
         5.663	  3.660e-002 	             	
         5.720	             	  1.022e+000 	
         5.727	  3.650e-002 	             	
         5.784	             	  1.023e+000 	
         5.791	  3.650e-002 	             	
         5.848	             	  1.023e+000 	
         5.855	  3.640e-002 	             	
         5.912	             	  1.023e+000 	
         5.919	  3.640e-002 	             	
         5.976	             	  1.023e+000 	
         5.983	  3.650e-002 	             	
         6.047	  3.630e-002 	             	
         6.072	             	  1.023e+000 	
         6.111	  3.640e-002 	             	
         6.136	             	  1.023e+000 	
         6.200	             	  1.023e+000 	
         6.207	  3.640e-002 	             	
         6.264	             	  1.023e+000 	
         6.271	  3.640e-002 	             	
         6.328	             	  1.023e+000 	
         6.335	  3.660e-002 	             	
         6.392	             	  1.023e+000 	
         6.399	  3.670e-002 	             	
         6.456	             	  1.023e+000 	
         6.463	  3.660e-002 	             	
         6.520	             	  1.022e+000 	
         6.527	  3.650e-002 	             	
         6.584	             	  1.022e+000 	
         6.591	  3.660e-002 	             	
         6.648	             	  1.022e+000 	
         6.655	  3.670e-002 	             	
         6.712	             	  1.022e+000 	
         6.719	  3.670e-002 	             	
         6.776	             	  1.022e+000 	
         6.783	  3.650e-002 	             	
         6.840	             	  1.022e+000 	
         6.847	  3.660e-002 	             	
         6.911	  3.660e-002 	             	
         6.936	             	  1.022e+000 	
         7.000	             	  1.022e+000 	
         7.007	  3.650e-002 	             	
         7.064	             	  1.022e+000 	
         7.071	  3.670e-002 	             	
         7.128	             	  1.022e+000 	
         7.135	  3.660e-002 	             	
         7.192	             	  1.022e+000 	
         7.199	  3.660e-002 	             	
         7.256	             	  1.022e+000 	
         7.263	  3.670e-002 	             	
         7.320	             	  1.023e+000 	
         7.327	  3.660e-002 	             	
         7.384	             	  1.023e+000 	
         7.391	  3.670e-002 	             	
         7.448	             	  1.022e+000 	
         7.455	  3.680e-002 	             	
         7.512	             	  1.022e+000 	
         7.519	  3.680e-002 	             	
         7.576	             	  1.022e+000 	
         7.583	  3.660e-002 	             	
         7.640	             	  1.022e+000 	
         7.647	  3.660e-002 	             	
         7.711	  3.670e-002 	             	
         7.736	             	  1.022e+000 	
         7.800	             	  1.022e+000 	
         7.807	  3.660e-002 	             	
         7.864	             	  1.022e+000 	
         7.871	  3.670e-002 	             	
         7.928	             	  1.022e+000 	
         7.935	  3.670e-002 	             	
         7.992	             	  1.022e+000 	
         7.999	  3.660e-002 	             	
         8.056	             	  1.022e+000 	
         8.063	  3.670e-002 	             	
         8.120	             	  1.023e+000 	
         8.127	  3.670e-002 	             	
         8.184	             	  1.023e+000 	
         8.191	  3.670e-002 	             	
         8.248	             	  1.023e+000 	
         8.255	  3.680e-002 	             	
         8.312	             	  1.023e+000 	
         8.319	  3.660e-002 	             	
         8.376	             	  1.023e+000 	
         8.383	  3.660e-002 	             	
         8.440	             	  1.023e+000 	
         8.447	  3.660e-002 	             	
         8.511	  3.660e-002 	             	
         8.536	             	  1.023e+000 	
         8.600	             	  1.023e+000 	
         8.607	  3.660e-002 	             	
         8.664	             	  1.023e+000 	
         8.671	  3.660e-002 	             	
         8.728	             	  1.023e+000 	
         8.735	  3.660e-002 	             	
         8.792	             	  1.023e+000 	
         8.799	  3.660e-002 	             	
         8.856	             	  1.023e+000 	
         8.863	  3.660e-002 	             	
         8.920	             	  1.023e+000 	
         8.927	  3.660e-002 	             	
         8.984	             	  1.022e+000 	
         8.991	  3.670e-002 	             	
         9.048	             	  1.022e+000 	
         9.055	  3.670e-002 	             	
         9.112	             	  1.023e+000 	
         9.119	  3.660e-002 	             	
         9.176	             	  1.023e+000 	
         9.183	  3.660e-002 	             	
         9.240	             	  1.023e+000 	
         9.247	  3.660e-002 	             	
         9.311	  3.650e-002 	             	
         9.336	             	  1.023e+000 	
         9.400	             	  1.023e+000 	
         9.407	  3.650e-002 	             	
         9.464	             	  1.023e+000 	
         9.471	  3.650e-002 	             	
         9.528	             	  1.023e+000 	
         9.535	  3.650e-002 	             	
         9.592	             	  1.022e+000 	
         9.599	  3.650e-002 	             	
         9.656	             	  1.022e+000 	
         9.663	  3.660e-002 	             	
         9.720	             	  1.022e+000 	
         9.727	  3.660e-002 	             	
         9.784	             	  1.022e+000 	
         9.791	  3.660e-002 	             	
         9.848	             	  1.023e+000 	
         9.855	  3.660e-002 	             	
         9.912	             	  1.023e+000 	
         9.919	  3.670e-002 	             	
         9.976	             	  1.023e+000 	
         9.983	  3.680e-002 	             	
        10.040	             	  1.023e+000 	
        10.047	  3.660e-002 	             	
        10.111	  3.650e-002 	             	
        10.136	             	  1.023e+000 	
        10.200	             	  1.022e+000 	
        10.207	  3.650e-002 	             	
        10.264	             	  1.022e+000 	
        10.271	  3.650e-002 	             	
        10.328	             	  1.022e+000 	
        10.335	  3.620e-002 	             	
        10.392	             	  1.022e+000 	
        10.399	  3.640e-002 	             	
        10.456	             	  1.022e+000 	
        10.463	  3.630e-002 	             	
        10.520	             	  1.022e+000 	
        10.527	  3.630e-002 	             	
        10.584	             	  1.022e+000 	
        10.591	  3.640e-002 	             	
        10.648	             	  1.022e+000 	
        10.655	  3.650e-002 	             	
        10.712	             	  1.022e+000 	
        10.719	  3.650e-002 	             	
        10.776	             	  1.022e+000 	
        10.783	  3.640e-002 	             	
        10.840	             	  1.022e+000 	
        10.847	  3.640e-002 	             	
        10.911	  3.640e-002 	             	
        10.936	             	  1.022e+000 	
        11.000	             	  1.022e+000 	
        11.007	  3.650e-002 	             	
        11.064	             	  1.022e+000 	
        11.071	  3.650e-002 	             	
        11.128	             	  1.022e+000 	
        11.135	  3.630e-002 	             	
        11.192	             	  1.022e+000 	
        11.199	  3.660e-002 	             	
        11.256	             	  1.022e+000 	
        11.263	  3.650e-002 	             	
        11.320	             	  1.022e+000 	
        11.327	  3.660e-002 	             	
        11.384	             	  1.022e+000 	
        11.391	  3.650e-002 	             	
        11.448	             	  1.022e+000 	
        11.455	  3.660e-002 	             	
        11.512	             	  1.022e+000 	
        11.519	  3.680e-002 	             	
        11.576	             	  1.022e+000 	
        11.583	  3.670e-002 	             	
        11.640	             	  1.022e+000 	
        11.647	  3.650e-002 	             	
        11.711	  3.650e-002 	             	
        11.736	             	  1.022e+000 	
        11.800	             	  1.022e+000 	
        11.807	  3.650e-002 	             	
        11.864	             	  1.022e+000 	
        11.871	  3.660e-002 	             	
        11.928	             	  1.022e+000 	
        11.935	  3.660e-002 	             	
        11.992	             	  1.022e+000 	
        11.999	  3.660e-002 	             	
        12.056	             	  1.022e+000 	
        12.063	  3.670e-002 	             	
        12.120	             	  1.022e+000 	
        12.127	  3.670e-002 	             	
        12.184	             	  1.022e+000 	
        12.191	  3.680e-002 	             	
        12.248	             	  1.022e+000 	
        12.255	  3.680e-002 	             	
        12.312	             	  1.023e+000 	
        12.319	  3.670e-002 	             	
        12.376	             	  1.022e+000 	
        12.383	  3.680e-002 	             	
        12.440	             	  1.022e+000 	
        12.447	  3.670e-002 	             	
        12.511	  3.660e-002 	             	
        12.536	             	  1.022e+000 	
        12.575	  3.660e-002 	             	
        12.600	             	  1.022e+000 	
        12.664	             	  1.022e+000 	
        12.671	  3.660e-002 	             	
        12.728	             	  1.022e+000 	
        12.735	  3.650e-002 	             	
        12.792	             	  1.022e+000 	
        12.799	  3.700e-002 	             	
        12.856	             	  1.022e+000 	
        12.863	  3.660e-002 	             	
        12.920	             	  1.021e+000 	
        12.927	  3.670e-002 	             	
        12.984	             	  1.022e+000 	
        12.991	  3.670e-002 	             	
        13.048	             	  1.022e+000 	
        13.055	  3.670e-002 	             	
        13.112	             	  1.022e+000 	
        13.119	  3.670e-002 	             	
        13.176	             	  1.022e+000 	
        13.183	  3.660e-002 	             	
        13.240	             	  1.022e+000 	
        13.247	  3.670e-002 	             	
        13.311	  3.650e-002 	             	
        13.336	             	  1.022e+000 	
        13.375	  3.670e-002 	             	
        13.400	             	  1.022e+000 	
        13.464	             	  1.022e+000 	
        13.471	  3.660e-002 	             	
        13.528	             	  1.022e+000 	
        13.535	  3.660e-002 	             	
        13.592	             	  1.022e+000 	
        13.599	  3.660e-002 	             	
        13.656	             	  1.022e+000 	
        13.663	  3.660e-002 	             	
        13.720	             	  1.023e+000 	
        13.727	  3.660e-002 	             	
        13.784	             	  1.023e+000 	
        13.791	  3.670e-002 	             	
        13.848	             	  1.023e+000 	
        13.855	  3.670e-002 	             	
        13.912	             	  1.023e+000 	
        13.919	  3.660e-002 	             	
        13.976	             	  1.023e+000 	
        13.983	  3.640e-002 	             	
        14.040	             	  1.022e+000 	
        14.047	  3.640e-002 	             	
        14.111	  3.640e-002 	             	
        14.136	             	  1.023e+000 	
        14.200	             	  1.022e+000 	
        14.207	  3.670e-002 	             	
        14.264	             	  1.022e+000 	
        14.271	  3.630e-002 	             	
        14.328	             	  1.022e+000 	
        14.335	  3.650e-002 	             	
        14.392	             	  1.022e+000 	
        14.399	  3.660e-002 	             	
        14.456	             	  1.022e+000 	
        14.463	  3.660e-002 	             	
        14.520	             	  1.022e+000 	
        14.527	  3.660e-002 	             	
        14.584	             	  1.022e+000 	
        14.591	  3.650e-002 	             	
        14.648	             	  1.022e+000 	
        14.655	  3.660e-002 	             	
        14.712	             	  1.022e+000 	
        14.719	  3.670e-002 	             	
        14.776	             	  1.022e+000 	
        14.783	  3.670e-002 	             	
        14.840	             	  1.022e+000 	
        14.847	  3.660e-002 	             	
        14.911	  3.650e-002 	             	
        14.936	             	  1.022e+000 	
        14.975	  3.650e-002 	             	
        15.000	             	  1.022e+000 	
        15.064	             	  1.022e+000 	
        15.071	  3.660e-002 	             	
        15.128	             	  1.023e+000 	
        15.135	  3.650e-002 	             	
        15.192	             	  1.023e+000 	
        15.199	  3.640e-002 	             	
        15.256	             	  1.023e+000 	
        15.263	  3.650e-002 	             	
        15.320	             	  1.022e+000 	
        15.327	  3.640e-002 	             	
        15.384	             	  1.022e+000 	
        15.391	  3.660e-002 	             	
        15.448	             	  1.022e+000 	
        15.455	  3.660e-002 	             	
        15.512	             	  1.022e+000 	
        15.519	  3.660e-002 	             	
        15.576	             	  1.022e+000 	
        15.583	  3.650e-002 	             	
        15.640	             	  1.022e+000 	
        15.647	  3.630e-002 	             	
        15.711	  3.640e-002 	             	
        15.736	             	  1.022e+000 	
        15.775	  3.650e-002 	             	
        15.800	             	  1.022e+000 	
        15.864	             	  1.022e+000 	
        15.871	  3.650e-002 	             	
        15.928	             	  1.022e+000 	
        15.935	  3.660e-002 	             	
        15.992	             	  1.022e+000 	
        15.999	  3.650e-002 	             	
        16.056	             	  1.022e+000 	
        16.063	  3.650e-002 	             	
        16.120	             	  1.022e+000 	
        16.127	  3.650e-002 	             	
        16.184	             	  1.023e+000 	
        16.191	  3.650e-002 	             	
        16.248	             	  1.023e+000 	
        16.255	  3.650e-002 	             	
        16.312	             	  1.023e+000 	
        16.319	  3.670e-002 	             	
        16.376	             	  1.022e+000 	
        16.383	  3.660e-002 	             	
        16.440	             	  1.022e+000 	
        16.447	  3.640e-002 	             	
        16.512	  3.650e-002 	             	
        16.537	             	  1.022e+000 	
        16.576	  3.640e-002 	             	
        16.601	             	  1.022e+000 	
        16.665	             	  1.022e+000 	
        16.672	  3.660e-002 	             	
        16.729	             	  1.023e+000 	
        16.736	  3.650e-002 	             	
        16.793	             	  1.023e+000 	
        16.800	  3.660e-002 	             	
        16.856	             	  1.023e+000 	
        16.864	  3.660e-002 	             	
        16.920	             	  1.022e+000 	
        16.928	  3.660e-002 	             	
        16.985	             	  1.022e+000 	
        16.992	  3.660e-002 	             	
        17.048	             	  1.022e+000 	
        17.056	  3.680e-002 	             	
        17.112	             	  1.022e+000 	
        17.120	  3.670e-002 	             	
        17.177	             	  1.022e+000 	
        17.184	  3.670e-002 	             	
        17.240	             	  1.022e+000 	
        17.248	  3.670e-002 	             	
        17.312	  3.670e-002 	             	
        17.336	             	  1.022e+000 	
        17.376	  3.660e-002 	             	
        17.400	             	  1.022e+000 	
        17.464	             	  1.022e+000 	
        17.472	  3.670e-002 	             	
        17.528	             	  1.022e+000 	
        17.536	  3.670e-002 	             	
        17.592	             	  1.022e+000 	
        17.600	  3.660e-002 	             	
        17.656	             	  1.022e+000 	
        17.664	  3.660e-002 	             	
        17.720	             	  1.022e+000 	
        17.728	  3.680e-002 	             	
        17.784	             	  1.022e+000 	
        17.792	  3.690e-002 	             	
        17.849	             	  1.022e+000 	
        17.856	  3.670e-002 	             	
        17.912	             	  1.022e+000 	
        17.920	  3.670e-002 	             	
        17.976	             	  1.023e+000 	
        17.984	  3.670e-002 	             	
        18.040	             	  1.023e+000 	
        18.048	  3.680e-002 	             	
        18.112	  3.670e-002 	             	
        18.136	             	  1.023e+000 	
        18.176	  3.680e-002 	             	
        18.200	             	  1.023e+000 	
        18.265	             	  1.023e+000 	
        18.272	  3.670e-002 	             	
        18.328	             	  1.023e+000 	
        18.336	  3.670e-002 	             	
        18.392	             	  1.023e+000 	
        18.400	  3.660e-002 	             	
        18.456	             	  1.023e+000 	
        18.464	  3.670e-002 	             	
        18.520	             	  1.023e+000 	
        18.528	  3.680e-002 	             	
        18.584	             	  1.023e+000 	
        18.592	  3.670e-002 	             	
        18.648	             	  1.022e+000 	
        18.656	  3.680e-002 	             	
        18.712	             	  1.022e+000 	
        18.720	  3.670e-002 	             	
        18.776	             	  1.022e+000 	
        18.784	  3.690e-002 	             	
        18.840	             	  1.022e+000 	
        18.848	  3.690e-002 	             	
        18.912	  3.680e-002 	             	
        18.936	             	  1.022e+000 	
        18.976	  3.690e-002 	             	
        19.000	             	  1.022e+000 	
        19.064	             	  1.022e+000 	
        19.072	  3.680e-002 	             	
        19.128	             	  1.022e+000 	
        19.135	  3.680e-002 	             	
        19.192	             	  1.022e+000 	
        19.200	  3.680e-002 	             	
        19.256	             	  1.022e+000 	
        19.264	  3.660e-002 	             	
        19.320	             	  1.022e+000 	
        19.328	  3.670e-002 	             	
        19.384	             	  1.022e+000 	
        19.392	  3.670e-002 	             	
        19.448	             	  1.022e+000 	
        19.456	  3.680e-002 	             	
        19.512	             	  1.022e+000 	
        19.520	  3.670e-002 	             	
        19.576	             	  1.022e+000 	
        19.584	  3.670e-002 	             	
        19.640	             	  1.022e+000 	
        19.648	  3.680e-002 	             	
        19.704	             	  1.022e+000 	
        19.712	  3.660e-002 	             	
        19.776	  3.670e-002 	             	
        19.800	             	  1.022e+000 	
        19.864	             	  1.022e+000 	
        19.872	  3.680e-002 	             	
        19.928	             	  1.022e+000 	
        19.936	  3.670e-002 	             	
        19.992	             	  1.023e+000 	
        20.000	  3.670e-002 	             	
        20.056	             	  1.023e+000 	
        20.064	  3.660e-002 	             	
        20.120	             	  1.023e+000 	
        20.128	  3.670e-002 	             	
        20.184	             	  1.023e+000 	
        20.192	  3.660e-002 	             	
        20.248	             	  1.023e+000 	
        20.256	  3.670e-002 	             	
        20.312	             	  1.023e+000 	
        20.320	  3.660e-002 	             	
        20.376	             	  1.023e+000 	
        20.384	  3.660e-002 	             	
        20.440	             	  1.023e+000 	
        20.448	  3.670e-002 	             	
        20.504	             	  1.023e+000 	
        20.512	  3.670e-002 	             	
        20.576	  3.660e-002 	             	
        20.600	             	  1.022e+000 	
        20.664	             	  1.022e+000 	
        20.672	  3.650e-002 	             	
        20.728	             	  1.022e+000 	
        20.736	  3.660e-002 	             	
        20.792	             	  1.022e+000 	
        20.800	  3.660e-002 	             	
        20.856	             	  1.022e+000 	
        20.864	  3.650e-002 	             	
        20.920	             	  1.022e+000 	
        20.928	  3.650e-002 	             	
        20.984	             	  1.022e+000 	
        20.992	  3.650e-002 	             	
        21.048	             	  1.022e+000 	
        21.056	  3.650e-002 	             	
        21.112	             	  1.022e+000 	
        21.120	  3.660e-002 	             	
        21.176	             	  1.022e+000 	
        21.184	  3.650e-002 	             	
        21.240	             	  1.022e+000 	
        21.248	  3.660e-002 	             	
        21.304	             	  1.022e+000 	
        21.311	  3.650e-002 	             	
        21.376	  3.650e-002 	             	
        21.400	             	  1.023e+000 	
        21.464	             	  1.023e+000 	
        21.472	  3.650e-002 	             	
        21.528	             	  1.022e+000 	
        21.535	  3.640e-002 	             	
        21.592	             	  1.022e+000 	
        21.600	  3.650e-002 	             	
        21.656	             	  1.022e+000 	
        21.664	  3.670e-002 	             	
        21.720	             	  1.022e+000 	
        21.727	  3.660e-002 	             	
        21.784	             	  1.022e+000 	
        21.791	  3.650e-002 	             	
        21.848	             	  1.022e+000 	
        21.855	  3.650e-002 	             	
        21.912	             	  1.021e+000 	
        21.919	  3.650e-002 	             	
        21.976	             	  1.022e+000 	
        21.984	  3.650e-002 	             	
        22.040	             	  1.022e+000 	
        22.047	  3.650e-002 	             	
        22.104	             	  1.022e+000 	
        22.112	  3.660e-002 	             	
        22.175	  3.660e-002 	             	
        22.200	             	  1.022e+000 	
        22.264	             	  1.022e+000 	
        22.271	  3.670e-002 	             	
        22.328	             	  1.022e+000 	
        22.335	  3.660e-002 	             	
        22.392	             	  1.022e+000 	
        22.399	  3.670e-002 	             	
        22.456	             	  1.022e+000 	
        22.464	  3.670e-002 	             	
        22.520	             	  1.022e+000 	
        22.527	  3.660e-002 	             	
        22.584	             	  1.022e+000 	
        22.591	  3.670e-002 	             	
        22.648	             	  1.022e+000 	
        22.656	  3.680e-002 	             	
        22.712	             	  1.022e+000 	
        22.719	  3.670e-002 	             	
        22.776	             	  1.022e+000 	
        22.783	  3.670e-002 	             	
        22.840	             	  1.022e+000 	
        22.847	  3.670e-002 	             	
        22.904	             	  1.022e+000 	
        22.911	  3.660e-002 	             	
        22.975	  3.670e-002 	             	
        23.000	             	  1.022e+000 	
        23.064	             	  1.022e+000 	
        23.071	  3.670e-002 	             	
        23.128	             	  1.022e+000 	
        23.136	  3.670e-002 	             	
        23.192	             	  1.022e+000 	
        23.199	  3.670e-002 	             	
        23.256	             	  1.022e+000 	
        23.263	  3.670e-002 	             	
        23.320	             	  1.021e+000 	
        23.327	  3.660e-002 	             	
        23.384	             	  1.022e+000 	
        23.391	  3.670e-002 	             	
        23.448	             	  1.021e+000 	
        23.456	  3.690e-002 	             	
        23.512	             	  1.021e+000 	
        23.519	  3.690e-002 	             	
        23.576	             	  1.021e+000 	
        23.583	  3.690e-002 	             	
        23.640	             	  1.021e+000 	
        23.647	  3.680e-002 	             	
        23.704	             	  1.022e+000 	
        23.711	  3.680e-002 	             	
        23.775	  3.690e-002 	             	
        23.800	             	  1.021e+000 	
        23.864	             	  1.021e+000 	
        23.871	  3.730e-002 	             	
        23.928	             	  1.022e+000 	
        23.935	  3.670e-002 	             	
        23.992	             	  1.022e+000 	
        23.999	  3.680e-002 	             	
        24.056	             	  1.022e+000 	
        24.063	  3.690e-002 	             	
        24.120	             	  1.022e+000 	
        24.127	  3.690e-002 	             	
        24.184	             	  1.022e+000 	
        24.191	  3.680e-002 	             	
        24.248	             	  1.022e+000 	
        24.255	  3.700e-002 	             	
        24.312	             	  1.022e+000 	
        24.319	  3.680e-002 	             	
        24.376	             	  1.023e+000 	
        24.383	  3.670e-002 	             	
        24.440	             	  1.023e+000 	
        24.447	  3.670e-002 	             	
        24.504	             	  1.023e+000 	
        24.511	  3.680e-002 	             	
        24.575	  3.670e-002 	             	
        24.600	             	  1.023e+000 	
        24.664	             	  1.022e+000 	
        24.671	  3.680e-002 	             	
        24.728	             	  1.022e+000 	
        24.735	  3.670e-002 	             	
        24.792	             	  1.022e+000 	
        24.799	  3.660e-002 	             	
        24.856	             	  1.022e+000 	
        24.864	  3.670e-002 	             	
        24.920	             	  1.022e+000 	
        24.927	  3.670e-002 	             	
        24.984	             	  1.022e+000 	
        24.991	  3.660e-002 	             	
        25.048	             	  1.022e+000 	
        25.055	  3.660e-002 	             	
        25.112	             	  1.022e+000 	
        25.119	  3.660e-002 	             	
        25.176	             	  1.022e+000 	
        25.183	  3.660e-002 	             	
        25.240	             	  1.022e+000 	
        25.247	  3.670e-002 	             	
        25.304	             	  1.022e+000 	
        25.311	  3.660e-002 	             	
        25.375	  3.670e-002 	             	
        25.400	             	  1.022e+000 	
        25.439	  3.650e-002 	             	
        25.464	             	  1.022e+000 	
        25.528	             	  1.022e+000 	
        25.535	  3.660e-002 	             	
        25.592	             	  1.022e+000 	
        25.599	  3.660e-002 	             	
        25.656	             	  1.022e+000 	
        25.663	  3.660e-002 	             	
        25.720	             	  1.022e+000 	
        25.727	  3.670e-002 	             	
        25.784	             	  1.022e+000 	
        25.791	  3.660e-002 	             	
        25.848	             	  1.022e+000 	
        25.855	  3.650e-002 	             	
        25.912	             	  1.022e+000 	
        25.919	  3.650e-002 	             	
        25.976	             	  1.022e+000 	
        25.983	  3.650e-002 	             	
        26.040	             	  1.022e+000 	
        26.047	  3.660e-002 	             	
        26.104	             	  1.022e+000 	
        26.111	  3.660e-002 	             	
        26.175	  3.640e-002 	             	
        26.200	             	  1.022e+000 	
        26.264	             	  1.022e+000 	
        26.271	  3.650e-002 	             	
        26.328	             	  1.023e+000 	
        26.335	  3.640e-002 	             	
        26.392	             	  1.023e+000 	
        26.399	  3.640e-002 	             	
        26.456	             	  1.023e+000 	
        26.463	  3.650e-002 	             	
        26.520	             	  1.023e+000 	
        26.527	  3.650e-002 	             	
        26.584	             	  1.023e+000 	
        26.591	  3.650e-002 	             	
        26.648	             	  1.023e+000 	
        26.655	  3.650e-002 	             	
        26.712	             	  1.022e+000 	
        26.719	  3.660e-002 	             	
        26.776	             	  1.022e+000 	
        26.783	  3.670e-002 	             	
        26.840	             	  1.022e+000 	
        26.847	  3.670e-002 	             	
        26.904	             	  1.022e+000 	
        26.911	  3.660e-002 	             	
        26.975	  3.670e-002 	             	
        27.000	             	  1.022e+000 	
        27.039	  3.660e-002 	             	
        27.064	             	  1.022e+000 	
        27.128	             	  1.022e+000 	
        27.135	  3.660e-002 	             	
        27.192	             	  1.022e+000 	
        27.199	  3.650e-002 	             	
        27.256	             	  1.022e+000 	
        27.263	  3.650e-002 	             	
        27.320	             	  1.023e+000 	
        27.327	  3.660e-002 	             	
        27.384	             	  1.023e+000 	
        27.391	  3.660e-002 	             	
        27.448	             	  1.023e+000 	
        27.455	  3.650e-002 	             	
        27.512	             	  1.023e+000 	
        27.519	  3.660e-002 	             	
        27.576	             	  1.023e+000 	
        27.583	  3.670e-002 	             	
        27.640	             	  1.023e+000 	
        27.647	  3.680e-002 	             	
        27.704	             	  1.023e+000 	
        27.711	  3.680e-002 	             	
        27.775	  3.670e-002 	             	
        27.800	             	  1.022e+000 	
        27.839	  3.680e-002 	             	
        27.864	             	  1.022e+000 	
        27.928	             	  1.022e+000 	
        27.935	  3.680e-002 	             	
        27.992	             	  1.022e+000 	
        27.999	  3.680e-002 	             	
        28.056	             	  1.022e+000 	
        28.063	  3.660e-002 	             	
        28.120	             	  1.022e+000 	
        28.127	  3.670e-002 	             	
        28.184	             	  1.022e+000 	
        28.191	  3.680e-002 	             	
        28.248	             	  1.023e+000 	
        28.255	  3.680e-002 	             	
        28.312	             	  1.023e+000 	
        28.319	  3.680e-002 	             	
        28.376	             	  1.023e+000 	
        28.383	  3.700e-002 	             	
        28.440	             	  1.023e+000 	
        28.447	  3.690e-002 	             	
        28.504	             	  1.023e+000 	
        28.511	  3.690e-002 	             	
        28.575	  3.690e-002 	             	
        28.600	             	  1.023e+000 	
        28.639	  3.690e-002 	             	
        28.664	             	  1.023e+000 	
        28.728	             	  1.023e+000 	
        28.735	  3.680e-002 	             	
        28.792	             	  1.023e+000 	
        28.799	  3.680e-002 	             	
        28.856	             	  1.023e+000 	
        28.863	  3.680e-002 	             	
        28.920	             	  1.023e+000 	
        28.927	  3.700e-002 	             	
        28.984	             	  1.023e+000 	
        28.991	  3.690e-002 	             	
        29.048	             	  1.023e+000 	
        29.055	  3.680e-002 	             	
        29.112	             	  1.023e+000 	
        29.119	  3.680e-002 	             	
        29.176	             	  1.023e+000 	
        29.183	  3.690e-002 	             	
        29.240	             	  1.023e+000 	
        29.247	  3.690e-002 	             	
        29.304	             	  1.023e+000 	
        29.311	  3.680e-002 	             	
        29.375	  3.690e-002 	             	
        29.400	             	  1.023e+000 	
        29.439	  3.680e-002 	             	
        29.464	             	  1.023e+000 	
        29.528	             	  1.023e+000 	
        29.535	  3.680e-002 	             	
        29.592	             	  1.023e+000 	
        29.599	  3.680e-002 	             	
        29.656	             	  1.023e+000 	
        29.663	  3.690e-002 	             	
        29.720	             	  1.023e+000 	
        29.727	  3.680e-002 	             	
        29.784	             	  1.023e+000 	
        29.791	  3.690e-002 	             	
        29.848	             	  1.023e+000 	
        29.855	  3.680e-002 	             	
        29.912	             	  1.023e+000 	
        29.919	  3.670e-002 	             	
        29.976	             	  1.023e+000 	
        29.983	  3.670e-002 	             	
        30.040	             	  1.023e+000 	
        30.047	  3.670e-002 	             	
        30.104	             	  1.022e+000 	
        30.111	  3.670e-002 	             	
        30.175	  3.670e-002 	             	
        30.200	             	  1.022e+000 	
        30.239	  3.660e-002 	             	
        30.264	             	  1.022e+000 	
        30.328	             	  1.023e+000 	
        30.335	  3.670e-002 	             	
        30.392	             	  1.023e+000 	
        30.399	  3.680e-002 	             	
        30.456	             	  1.022e+000 	
        30.463	  3.660e-002 	             	
        30.520	             	  1.022e+000 	
        30.527	  3.670e-002 	             	
        30.584	             	  1.022e+000 	
        30.591	  3.670e-002 	             	
        30.648	             	  1.023e+000 	
        30.655	  3.670e-002 	             	
        30.712	             	  1.022e+000 	
        30.719	  3.660e-002 	             	
        30.776	             	  1.022e+000 	
        30.783	  3.660e-002 	             	
        30.840	             	  1.022e+000 	
        30.847	  3.650e-002 	             	
        30.904	             	  1.023e+000 	
        30.911	  3.660e-002 	             	
        30.975	  3.650e-002 	             	
        31.000	             	  1.023e+000 	
        31.039	  3.660e-002 	             	
        31.064	             	  1.022e+000 	
        31.128	             	  1.022e+000 	
        31.135	  3.650e-002 	             	
        31.192	             	  1.022e+000 	
        31.199	  3.650e-002 	             	
        31.256	             	  1.022e+000 	
        31.263	  3.660e-002 	             	
        31.320	             	  1.022e+000 	
        31.327	  3.650e-002 	             	
        31.384	             	  1.023e+000 	
        31.391	  3.640e-002 	             	
        31.448	             	  1.023e+000 	
        31.455	  3.650e-002 	             	
        31.512	             	  1.023e+000 	
        31.519	  3.650e-002 	             	
        31.576	             	  1.022e+000 	
        31.583	  3.660e-002 	             	
        31.640	             	  1.022e+000 	
        31.647	  3.650e-002 	             	
        31.704	             	  1.022e+000 	
        31.711	  3.650e-002 	             	
        31.775	  3.650e-002 	             	
        31.800	             	  1.022e+000 	
        31.839	  3.650e-002 	             	
        31.864	             	  1.023e+000 	
        31.928	             	  1.023e+000 	
        31.935	  3.640e-002 	             	
        31.992	             	  1.022e+000 	
        31.999	  3.660e-002 	             	
        32.056	             	  1.022e+000 	
        32.063	  3.660e-002 	             	
        32.120	             	  1.022e+000 	
        32.127	  3.660e-002 	             	
        32.184	             	  1.022e+000 	
        32.191	  3.650e-002 	             	
        32.248	             	  1.022e+000 	
        32.255	  3.650e-002 	             	
        32.312	             	  1.022e+000 	
        32.319	  3.650e-002 	             	
        32.376	             	  1.023e+000 	
        32.383	  3.670e-002 	             	
        32.440	             	  1.023e+000 	
        32.447	  3.670e-002 	             	
        32.504	             	  1.023e+000 	
        32.511	  3.670e-002 	             	
        32.568	             	  1.023e+000 	
        32.575	  3.670e-002 	             	
        32.639	  3.660e-002 	             	
        32.664	             	  1.023e+000 	
        32.728	             	  1.023e+000 	
        32.735	  3.660e-002 	             	
        32.792	             	  1.023e+000 	
        32.799	  3.680e-002 	             	
        32.856	             	  1.023e+000 	
        32.863	  3.650e-002 	             	
        32.920	             	  1.023e+000 	
        32.927	  3.660e-002 	             	
        32.984	             	  1.022e+000 	
        32.991	  3.680e-002 	             	
        33.048	             	  1.022e+000 	
        33.055	  3.690e-002 	             	
        33.112	             	  1.022e+000 	
        33.119	  3.670e-002 	             	
        33.176	             	  1.022e+000 	
        33.183	  3.680e-002 	             	
        33.240	             	  1.022e+000 	
        33.247	  3.670e-002 	             	
        33.304	             	  1.022e+000 	
        33.311	  3.690e-002 	             	
        33.368	             	  1.022e+000 	
        33.375	  3.680e-002 	             	
        33.439	  3.690e-002 	             	
        33.464	             	  1.021e+000 	
        33.528	             	  1.021e+000 	
        33.535	  3.670e-002 	             	
        33.592	             	  1.022e+000 	
        33.599	  3.670e-002 	             	
        33.656	             	  1.022e+000 	
        33.663	  3.700e-002 	             	
        33.720	             	  1.022e+000 	
        33.727	  3.680e-002 	             	
        33.783	             	  1.022e+000 	
        33.791	  3.670e-002 	             	
        33.848	             	  1.022e+000 	
        33.855	  3.670e-002 	             	
        33.912	             	  1.022e+000 	
        33.919	  3.690e-002 	             	
        33.977	             	  1.022e+000 	
        33.984	  3.690e-002 	             	
        34.041	             	  1.022e+000 	
        34.048	  3.680e-002 	             	
        34.105	             	  1.022e+000 	
        34.112	  3.690e-002 	             	
        34.169	             	  1.022e+000 	
        34.176	  3.690e-002 	             	
        34.240	  3.680e-002 	             	
        34.265	             	  1.022e+000 	
        34.328	             	  1.022e+000 	
        34.336	  3.680e-002 	             	
        34.392	             	  1.022e+000 	
        34.400	  3.680e-002 	             	
        34.457	             	  1.022e+000 	
        34.464	  3.680e-002 	             	
        34.520	             	  1.022e+000 	
        34.528	  3.700e-002 	             	
        34.585	             	  1.022e+000 	
        34.592	  3.680e-002 	             	
        34.648	             	  1.022e+000 	
        34.656	  3.690e-002 	             	
        34.712	             	  1.022e+000 	
        34.720	  3.680e-002 	             	
        34.776	             	  1.022e+000 	
        34.784	  3.700e-002 	             	
        34.840	             	  1.021e+000 	
        34.848	  3.680e-002 	             	
        34.904	             	  1.021e+000 	
        34.912	  3.690e-002 	             	
        34.968	             	  1.021e+000 	
        34.976	  3.690e-002 	             	
        35.040	  3.690e-002 	             	
        35.064	             	  1.021e+000 	
        35.128	             	  1.021e+000 	
        35.136	  3.690e-002 	             	
        35.192	             	  1.021e+000 	
        35.200	  3.680e-002 	             	
        35.256	             	  1.022e+000 	
        35.264	  3.680e-002 	             	
        35.320	             	  1.022e+000 	
        35.328	  3.680e-002 	             	
        35.384	             	  1.022e+000 	
        35.392	  3.680e-002 	             	
        35.448	             	  1.022e+000 	
        35.456	  3.670e-002 	             	
        35.512	             	  1.022e+000 	
        35.520	  3.670e-002 	             	
        35.576	             	  1.022e+000 	
        35.584	  3.670e-002 	             	
        35.640	             	  1.021e+000 	
        35.648	  3.670e-002 	             	
        35.704	             	  1.021e+000 	
        35.712	  3.660e-002 	             	
        35.768	             	  1.021e+000 	
        35.776	  3.660e-002 	             	
        35.840	  3.660e-002 	             	
        35.864	             	  1.021e+000 	
        35.928	             	  1.021e+000 	
        35.936	  3.660e-002 	             	
        35.992	             	  1.021e+000 	
        36.000	  3.670e-002 	             	
        36.056	             	  1.021e+000 	
        36.064	  3.670e-002 	             	
        36.120	             	  1.021e+000 	
        36.128	  3.660e-002 	             	
        36.184	             	  1.021e+000 	
        36.192	  3.660e-002 	             	
        36.248	             	  1.021e+000 	
        36.256	  3.660e-002 	             	
        36.312	             	  1.021e+000 	
        36.320	  3.650e-002 	             	
        36.376	             	  1.021e+000 	
        36.384	  3.650e-002 	             	
        36.440	             	  1.021e+000 	
        36.448	  3.640e-002 	             	
        36.504	             	  1.021e+000 	
        36.512	  3.650e-002 	             	
        36.568	             	  1.021e+000 	
        36.576	  3.640e-002 	             	
        36.640	  3.650e-002 	             	
        36.664	             	  1.021e+000 	
        36.728	             	  1.021e+000 	
        36.736	  3.630e-002 	             	
        36.792	             	  1.021e+000 	
        36.800	  3.640e-002 	             	
        36.856	             	  1.021e+000 	
        36.864	  3.640e-002 	             	
        36.920	             	  1.021e+000 	
        36.928	  3.630e-002 	             	
        36.984	             	  1.021e+000 	
        36.992	  3.630e-002 	             	
        37.048	             	  1.021e+000 	
        37.056	  3.640e-002 	             	
        37.112	             	  1.020e+000 	
        37.120	  3.650e-002 	             	
        37.176	             	  1.020e+000 	
        37.184	  3.660e-002 	             	
        37.240	             	  1.020e+000 	
        37.248	  3.650e-002 	             	
        37.304	             	  1.021e+000 	
        37.312	  3.640e-002 	             	
        37.368	             	  1.021e+000 	
        37.376	  3.650e-002 	             	
        37.440	  3.660e-002 	             	
        37.464	             	  1.021e+000 	
        37.528	             	  1.021e+000 	
        37.536	  3.650e-002 	             	
        37.592	             	  1.021e+000 	
        37.600	  3.650e-002 	             	
        37.656	             	  1.021e+000 	
        37.664	  3.650e-002 	             	
        37.720	             	  1.021e+000 	
        37.728	  3.650e-002 	             	
        37.784	             	  1.021e+000 	
        37.792	  3.660e-002 	             	
        37.848	             	  1.021e+000 	
        37.856	  3.660e-002 	             	
        37.912	             	  1.021e+000 	
        37.920	  3.670e-002 	             	
        37.976	             	  1.021e+000 	
        37.984	  3.660e-002 	             	
        38.040	             	  1.021e+000 	
        38.048	  3.670e-002 	             	
        38.104	             	  1.021e+000 	
        38.111	  3.660e-002 	             	
        38.168	             	  1.021e+000 	
        38.176	  3.660e-002 	             	
        38.240	  3.660e-002 	             	
        38.264	             	  1.021e+000 	
        38.328	             	  1.021e+000 	
        38.335	  3.670e-002 	             	
        38.392	             	  1.021e+000 	
        38.400	  3.680e-002 	             	
        38.456	             	  1.021e+000 	
        38.464	  3.680e-002 	             	
        38.520	             	  1.021e+000 	
        38.528	  3.690e-002 	             	
        38.584	             	  1.021e+000 	
        38.591	  3.680e-002 	             	
        38.648	             	  1.021e+000 	
        38.655	  3.680e-002 	             	
        38.712	             	  1.022e+000 	
        38.720	  3.670e-002 	             	
        38.776	             	  1.022e+000 	
        38.784	  3.680e-002 	             	
        38.840	             	  1.022e+000 	
        38.848	  3.690e-002 	             	
        38.904	             	  1.022e+000 	
        38.911	  3.700e-002 	             	
        38.968	             	  1.021e+000 	
        38.976	  3.700e-002 	             	
        39.040	  3.680e-002 	             	
        39.064	             	  1.021e+000 	
        39.104	  3.690e-002 	             	
        39.128	             	  1.022e+000 	
        39.192	             	  1.021e+000 	
        39.199	  3.680e-002 	             	
        39.256	             	  1.021e+000 	
        39.263	  3.680e-002 	             	
        39.320	             	  1.021e+000 	
        39.327	  3.690e-002 	             	
        39.384	             	  1.021e+000 	
        39.392	  3.680e-002 	             	
        39.448	             	  1.021e+000 	
        39.455	  3.680e-002 	             	
        39.512	             	  1.021e+000 	
        39.519	  3.690e-002 	             	
        39.576	             	  1.021e+000 	
        39.583	  3.700e-002 	             	
        39.640	             	  1.021e+000 	
        39.647	  3.690e-002 	             	
        39.704	             	  1.021e+000 	
        39.712	  3.670e-002 	             	
        39.768	             	  1.021e+000 	
        39.775	  3.680e-002 	             	
        39.839	  3.690e-002 	             	
        39.864	             	  1.021e+000 	
        39.903	  3.700e-002 	             	
        39.928	             	  1.021e+000 	
        39.992	             	  1.021e+000 	
        39.999	  3.680e-002 	             	
        40.056	             	  1.021e+000 	
        40.063	  3.680e-002 	             	
        40.120	             	  1.021e+000 	
        40.127	  3.690e-002 	             	
        40.184	             	  1.021e+000 	
        40.191	  3.680e-002 	             	
        40.248	             	  1.021e+000 	
        40.255	  3.700e-002 	             	
        40.312	             	  1.021e+000 	
        40.320	  3.680e-002 	             	
        40.376	             	  1.022e+000 	
        40.383	  3.680e-002 	             	
        40.440	             	  1.022e+000 	
        40.447	  3.680e-002 	             	
        40.504	             	  1.022e+000 	
        40.511	  3.680e-002 	             	
        40.568	             	  1.022e+000 	
        40.575	  3.670e-002 	             	
        40.639	  3.670e-002 	             	
        40.664	             	  1.021e+000 	
        40.703	  3.680e-002 	             	
        40.728	             	  1.021e+000 	
        40.792	             	  1.021e+000 	
        40.799	  3.680e-002 	             	
        40.856	             	  1.021e+000 	
        40.863	  3.680e-002 	             	
        40.920	             	  1.021e+000 	
        40.927	  3.670e-002 	             	
        40.984	             	  1.021e+000 	
        40.991	  3.670e-002 	             	
        41.048	             	  1.021e+000 	
        41.055	  3.670e-002 	             	
        41.112	             	  1.021e+000 	
        41.119	  3.660e-002 	             	
        41.176	             	  1.021e+000 	
        41.183	  3.670e-002 	             	
        41.240	             	  1.021e+000 	
        41.247	  3.670e-002 	             	
        41.304	             	  1.021e+000 	
        41.311	  3.650e-002 	             	
        41.368	             	  1.021e+000 	
        41.375	  3.660e-002 	             	
        41.439	  3.660e-002 	             	
        41.464	             	  1.021e+000 	
        41.503	  3.660e-002 	             	
        41.528	             	  1.021e+000 	
        41.592	             	  1.021e+000 	
        41.599	  3.650e-002 	             	
        41.656	             	  1.021e+000 	
        41.663	  3.660e-002 	             	
        41.720	             	  1.021e+000 	
        41.727	  3.640e-002 	             	
        41.784	             	  1.021e+000 	
        41.791	  3.650e-002 	             	
        41.848	             	  1.021e+000 	
        41.855	  3.660e-002 	             	
        41.912	             	  1.021e+000 	
        41.919	  3.640e-002 	             	
        41.976	             	  1.021e+000 	
        41.983	  3.650e-002 	             	
        42.040	             	  1.021e+000 	
        42.047	  3.640e-002 	             	
        42.104	             	  1.022e+000 	
        42.111	  3.640e-002 	             	
        42.168	             	  1.021e+000 	
        42.175	  3.640e-002 	             	
        42.239	  3.630e-002 	             	
        42.264	             	  1.021e+000 	
        42.303	  3.640e-002 	             	
        42.328	             	  1.021e+000 	
        42.392	             	  1.021e+000 	
        42.399	  3.650e-002 	             	
        42.456	             	  1.021e+000 	
        42.463	  3.640e-002 	             	
        42.520	             	  1.021e+000 	
        42.527	  3.640e-002 	             	
        42.584	             	  1.021e+000 	
        42.591	  3.640e-002 	             	
        42.648	             	  1.021e+000 	
        42.655	  3.650e-002 	             	
        42.712	             	  1.021e+000 	
        42.719	  3.640e-002 	             	
        42.776	             	  1.021e+000 	
        42.783	  3.640e-002 	             	
        42.840	             	  1.021e+000 	
        42.847	  3.640e-002 	             	
        42.904	             	  1.021e+000 	
        42.911	  3.640e-002 	             	
        42.968	             	  1.021e+000 	
        42.975	  3.650e-002 	             	
        43.039	  3.650e-002 	             	
        43.064	             	  1.021e+000 	
        43.103	  3.650e-002 	             	
        43.128	             	  1.021e+000 	
        43.192	             	  1.021e+000 	
        43.199	  3.660e-002 	             	
        43.256	             	  1.021e+000 	
        43.263	  3.660e-002 	             	
        43.320	             	  1.021e+000 	
        43.327	  3.670e-002 	             	
        43.384	             	  1.021e+000 	
        43.391	  3.660e-002 	             	
        43.448	             	  1.021e+000 	
        43.455	  3.670e-002 	             	
        43.512	             	  1.021e+000 	
        43.519	  3.660e-002 	             	
        43.576	             	  1.021e+000 	
        43.583	  3.660e-002 	             	
        43.640	             	  1.021e+000 	
        43.647	  3.670e-002 	             	
        43.704	             	  1.021e+000 	
        43.711	  3.670e-002 	             	
        43.768	             	  1.021e+000 	
        43.775	  3.660e-002 	             	
        43.839	  3.670e-002 	             	
        43.864	             	  1.021e+000 	
        43.903	  3.670e-002 	             	
        43.928	             	  1.021e+000 	
        43.992	             	  1.021e+000 	
        43.999	  3.690e-002 	             	
        44.056	             	  1.021e+000 	
        44.063	  3.660e-002 	             	
        44.120	             	  1.021e+000 	
        44.127	  3.680e-002 	             	
        44.184	             	  1.021e+000 	
        44.191	  3.690e-002 	             	
        44.248	             	  1.021e+000 	
        44.255	  3.680e-002 	             	
        44.312	             	  1.021e+000 	
        44.319	  3.680e-002 	             	
        44.376	             	  1.021e+000 	
        44.383	  3.690e-002 	             	
        44.440	             	  1.021e+000 	
        44.447	  3.690e-002 	             	
        44.504	             	  1.021e+000 	
        44.511	  3.690e-002 	             	
        44.568	             	  1.021e+000 	
        44.575	  3.700e-002 	             	
        44.632	             	  1.021e+000 	
        44.639	  3.710e-002 	             	
        44.703	  3.680e-002 	             	
        44.728	             	  1.021e+000 	
        44.792	             	  1.021e+000 	
        44.799	  3.690e-002 	             	
        44.856	             	  1.021e+000 	
        44.863	  3.680e-002 	             	
        44.920	             	  1.021e+000 	
        44.927	  3.690e-002 	             	
        44.984	             	  1.021e+000 	
        44.991	  3.710e-002 	             	
        45.048	             	  1.021e+000 	
        45.055	  3.700e-002 	             	
        45.112	             	  1.021e+000 	
        45.119	  3.700e-002 	             	
        45.176	             	  1.021e+000 	
        45.183	  3.700e-002 	             	
        45.240	             	  1.021e+000 	
        45.247	  3.690e-002 	             	
        45.304	             	  1.022e+000 	
        45.311	  3.660e-002 	             	
        45.368	             	  1.022e+000 	
        45.375	  3.690e-002 	             	
        45.432	             	  1.022e+000 	
        45.439	  3.700e-002 	             	
        45.503	  3.710e-002 	             	
        45.528	             	  1.021e+000 	
        45.592	             	  1.021e+000 	
        45.599	  3.680e-002 	             	
        45.656	             	  1.021e+000 	
        45.663	  3.670e-002 	             	
        45.720	             	  1.021e+000 	
        45.727	  3.690e-002 	             	
        45.784	             	  1.021e+000 	
        45.791	  3.680e-002 	             	
        45.848	             	  1.021e+000 	
        45.855	  3.690e-002 	             	
        45.912	             	  1.021e+000 	
        45.919	  3.690e-002 	             	
        45.976	             	  1.021e+000 	
        45.983	  3.690e-002 	             	
        46.040	             	  1.021e+000 	
        46.047	  3.690e-002 	             	
        46.104	             	  1.021e+000 	
        46.111	  3.660e-002 	             	
        46.168	             	  1.021e+000 	
        46.175	  3.680e-002 	             	
        46.232	             	  1.021e+000 	
        46.239	  3.690e-002 	             	
        46.303	  3.670e-002 	             	
        46.328	             	  1.021e+000 	
        46.392	             	  1.021e+000 	
        46.399	  3.680e-002 	             	
        46.456	             	  1.021e+000 	
        46.463	  3.670e-002 	             	
        46.520	             	  1.021e+000 	
        46.527	  3.680e-002 	             	
        46.584	             	  1.021e+000 	
        46.591	  3.680e-002 	             	
        46.648	             	  1.021e+000 	
        46.655	  3.670e-002 	             	
        46.712	             	  1.021e+000 	
        46.719	  3.660e-002 	             	
        46.776	             	  1.021e+000 	
        46.783	  3.660e-002 	             	
        46.840	             	  1.021e+000 	
        46.847	  3.660e-002 	             	
        46.904	             	  1.021e+000 	
        46.911	  3.660e-002 	             	
        46.968	             	  1.021e+000 	
        46.975	  3.660e-002 	             	
        47.032	             	  1.021e+000 	
        47.039	  3.660e-002 	             	
        47.103	  3.660e-002 	             	
        47.128	             	  1.021e+000 	
        47.192	             	  1.021e+000 	
        47.199	  3.640e-002 	             	
        47.256	             	  1.021e+000 	
        47.263	  3.620e-002 	             	
        47.320	             	  1.021e+000 	
        47.327	  3.610e-002 	             	
        47.384	             	  1.021e+000 	
        47.391	  3.660e-002 	             	
        47.448	             	  1.022e+000 	
        47.455	  3.650e-002 	             	
        47.512	             	  1.022e+000 	
        47.519	  3.630e-002 	             	
        47.576	             	  1.022e+000 	
        47.583	  3.640e-002 	             	
        47.640	             	  1.022e+000 	
        47.647	  3.640e-002 	             	
        47.704	             	  1.021e+000 	
        47.711	  3.650e-002 	             	
        47.768	             	  1.021e+000 	
        47.775	  3.640e-002 	             	
        47.832	             	  1.021e+000 	
        47.839	  3.660e-002 	             	
        47.903	  3.660e-002 	             	
        47.928	             	  1.021e+000 	
        47.992	             	  1.021e+000 	
        47.999	  3.650e-002 	             	
        48.056	             	  1.021e+000 	
        48.063	  3.650e-002 	             	
        48.120	             	  1.021e+000 	
        48.127	  3.660e-002 	             	
        48.184	             	  1.021e+000 	
        48.191	  3.640e-002 	             	
        48.248	             	  1.022e+000 	
        48.255	  3.650e-002 	             	
        48.312	             	  1.022e+000 	
        48.319	  3.660e-002 	             	
        48.376	             	  1.022e+000 	
        48.383	  3.660e-002 	             	
        48.440	             	  1.022e+000 	
        48.447	  3.650e-002 	             	
        48.504	             	  1.022e+000 	
        48.511	  3.640e-002 	             	
        48.568	             	  1.022e+000 	
        48.575	  3.650e-002 	             	
        48.632	             	  1.021e+000 	
        48.639	  3.680e-002 	             	
        48.703	  3.690e-002 	             	
        48.728	             	  1.021e+000 	
        48.792	             	  1.021e+000 	
        48.799	  3.670e-002 	             	
        48.856	             	  1.021e+000 	
        48.863	  3.660e-002 	             	
        48.920	             	  1.021e+000 	
        48.927	  3.680e-002 	             	
        48.984	             	  1.022e+000 	
        48.991	  3.670e-002 	             	
        49.048	             	  1.022e+000 	
        49.055	  3.670e-002 	             	
        49.112	             	  1.022e+000 	
        49.119	  3.670e-002 	             	
        49.176	             	  1.022e+000 	
        49.183	  3.680e-002 	             	
        49.240	             	  1.022e+000 	
        49.247	  3.670e-002 	             	
        49.304	             	  1.022e+000 	
        49.311	  3.680e-002 	             	
        49.368	             	  1.022e+000 	
        49.375	  3.670e-002 	             	
        49.432	             	  1.022e+000 	
        49.439	  3.680e-002 	             	
        49.503	  3.680e-002 	             	
        49.528	             	  1.022e+000 	
        49.592	             	  1.022e+000 	
        49.599	  3.690e-002 	             	
        49.656	             	  1.022e+000 	
        49.663	  3.680e-002 	             	
        49.720	             	  1.022e+000 	
        49.727	  3.680e-002 	             	
        49.784	             	  1.022e+000 	
        49.791	  3.690e-002 	             	
        49.848	             	  1.022e+000 	
        49.855	  3.680e-002 	             	
        49.912	             	  1.022e+000 	
        49.919	  3.680e-002 	             	
        49.976	             	  1.022e+000 	
        49.983	  3.700e-002 	             	
        50.040	             	  1.022e+000 	
        50.047	  3.670e-002 	             	
        50.104	             	  1.022e+000 	
        50.111	  3.670e-002 	             	
        50.168	             	  1.022e+000 	
        50.175	  3.690e-002 	             	
        50.232	             	  1.022e+000 	
        50.239	  3.670e-002 	             	
        50.303	  3.680e-002 	             	
        50.328	             	  1.022e+000 	
        50.392	             	  1.022e+000 	
        50.399	  3.690e-002 	             	
        50.456	             	  1.022e+000 	
        50.463	  3.690e-002 	             	
        50.520	             	  1.022e+000 	
        50.527	  3.700e-002 	             	
        50.583	             	  1.022e+000 	
        50.591	  3.690e-002 	             	
        50.648	             	  1.022e+000 	
        50.655	  3.680e-002 	             	
        50.712	             	  1.022e+000 	
        50.719	  3.700e-002 	             	
        50.776	             	  1.022e+000 	
        50.783	  3.690e-002 	             	
        50.840	             	  1.022e+000 	
        50.847	  3.690e-002 	             	
        50.903	             	  1.022e+000 	
        50.911	  3.680e-002 	             	
        50.968	             	  1.022e+000 	
        50.975	  3.690e-002 	             	
        51.032	             	  1.022e+000 	
        51.039	  3.670e-002 	             	
        51.103	  3.650e-002 	             	
        51.127	             	  1.022e+000 	
        51.192	             	  1.022e+000 	
        51.199	  3.660e-002 	             	
        51.256	             	  1.021e+000 	
        51.263	  3.660e-002 	             	
        51.319	             	  1.021e+000 	
        51.327	  3.680e-002 	             	
        51.384	             	  1.021e+000 	
        51.391	  3.670e-002 	             	
        51.449	             	  1.022e+000 	
        51.456	  3.660e-002 	             	
        51.513	             	  1.022e+000 	
        51.520	  3.670e-002 	             	
        51.577	             	  1.022e+000 	
        51.584	  3.660e-002 	             	
        51.640	             	  1.022e+000 	
        51.648	  3.660e-002 	             	
        51.704	             	  1.022e+000 	
        51.712	  3.660e-002 	             	
        51.769	             	  1.022e+000 	
        51.776	  3.660e-002 	             	
        51.833	             	  1.022e+000 	
        51.840	  3.660e-002 	             	
        51.904	  3.660e-002 	             	
        51.928	             	  1.022e+000 	
        51.992	             	  1.021e+000 	
        52.000	  3.660e-002 	             	
        52.057	             	  1.021e+000 	
        52.064	  3.660e-002 	             	
        52.120	             	  1.022e+000 	
        52.128	  3.670e-002 	             	
        52.185	             	  1.022e+000 	
        52.192	  3.630e-002 	             	
        52.249	             	  1.022e+000 	
        52.256	  3.650e-002 	             	
        52.313	             	  1.022e+000 	
        52.320	  3.640e-002 	             	
        52.376	             	  1.022e+000 	
        52.384	  3.650e-002 	             	
        52.440	             	  1.022e+000 	
        52.448	  3.650e-002 	             	
        52.504	             	  1.021e+000 	
        52.512	  3.650e-002 	             	
        52.568	             	  1.021e+000 	
        52.576	  3.640e-002 	             	
        52.632	             	  1.021e+000 	
        52.640	  3.640e-002 	             	
        52.704	  3.630e-002 	             	
        52.729	             	  1.021e+000 	
        52.768	  3.640e-002 	             	
        52.792	             	  1.021e+000 	
        52.856	             	  1.022e+000 	
        52.864	  3.630e-002 	             	
        52.920	             	  1.022e+000 	
        52.928	  3.640e-002 	             	
        52.984	             	  1.022e+000 	
        52.992	  3.640e-002 	             	
        53.048	             	  1.022e+000 	
        53.056	  3.640e-002 	             	
        53.112	             	  1.022e+000 	
        53.120	  3.640e-002 	             	
        53.176	             	  1.022e+000 	
        53.184	  3.640e-002 	             	
        53.240	             	  1.022e+000 	
        53.248	  3.650e-002 	             	
        53.304	             	  1.022e+000 	
        53.312	  3.650e-002 	             	
        53.368	             	  1.021e+000 	
        53.376	  3.650e-002 	             	
        53.432	             	  1.021e+000 	
        53.440	  3.650e-002 	             	
        53.504	  3.650e-002 	             	
        53.528	             	  1.021e+000 	
        53.568	  3.650e-002 	             	
        53.592	             	  1.021e+000 	
        53.656	             	  1.021e+000 	
        53.664	  3.650e-002 	             	
        53.720	             	  1.021e+000 	
        53.728	  3.650e-002 	             	
        53.784	             	  1.021e+000 	
        53.792	  3.660e-002 	             	
        53.848	             	  1.021e+000 	
        53.856	  3.670e-002 	             	
        53.912	             	  1.021e+000 	
        53.920	  3.660e-002 	             	
        53.976	             	  1.021e+000 	
        53.984	  3.650e-002 	             	
        54.040	             	  1.022e+000 	
        54.048	  3.660e-002 	             	
        54.104	             	  1.022e+000 	
        54.112	  3.660e-002 	             	
        54.168	             	  1.022e+000 	
        54.176	  3.670e-002 	             	
        54.232	             	  1.022e+000 	
        54.240	  3.660e-002 	             	
        54.304	  3.660e-002 	             	
        54.328	             	  1.021e+000 	
        54.368	  3.670e-002 	             	
        54.392	             	  1.021e+000 	
        54.456	             	  1.021e+000 	
        54.464	  3.670e-002 	             	
        54.520	             	  1.021e+000 	
        54.528	  3.680e-002 	             	
        54.584	             	  1.021e+000 	
        54.592	  3.670e-002 	             	
        54.648	             	  1.021e+000 	
        54.656	  3.660e-002 	             	
        54.712	             	  1.021e+000 	
        54.720	  3.680e-002 	             	
        54.776	             	  1.021e+000 	
        54.784	  3.680e-002 	             	
        54.840	             	  1.021e+000 	
        54.848	  3.670e-002 	             	
        54.904	             	  1.021e+000 	
        54.912	  3.670e-002 	             	
        54.968	             	  1.021e+000 	
        54.976	  3.660e-002 	             	
        55.032	             	  1.022e+000 	
        55.040	  3.670e-002 	             	
        55.104	  3.670e-002 	             	
        55.128	             	  1.022e+000 	
        55.192	             	  1.022e+000 	
        55.200	  3.670e-002 	             	
        55.256	             	  1.022e+000 	
        55.264	  3.670e-002 	             	
        55.320	             	  1.022e+000 	
        55.327	  3.670e-002 	             	
        55.384	             	  1.022e+000 	
        55.392	  3.680e-002 	             	
        55.448	             	  1.022e+000 	
        55.456	  3.690e-002 	             	
        55.512	             	  1.022e+000 	
        55.520	  3.680e-002 	             	
        55.576	             	  1.022e+000 	
        55.584	  3.670e-002 	             	
        55.640	             	  1.022e+000 	
        55.648	  3.670e-002 	             	
        55.704	             	  1.022e+000 	
        55.712	  3.660e-002 	             	
        55.768	             	  1.022e+000 	
        55.776	  3.670e-002 	             	
        55.832	             	  1.022e+000 	
        55.840	  3.670e-002 	             	
        55.903	  3.660e-002 	             	
        55.928	             	  1.022e+000 	
        55.968	  3.670e-002 	             	
        55.992	             	  1.022e+000 	
        56.056	             	  1.022e+000 	
        56.064	  3.690e-002 	             	
        56.120	             	  1.022e+000 	
        56.127	  3.690e-002 	             	
        56.184	             	  1.021e+000 	
        56.192	  3.680e-002 	             	
        56.248	             	  1.021e+000 	
        56.255	  3.670e-002 	             	
        56.312	             	  1.022e+000 	
        56.320	  3.670e-002 	             	
        56.376	             	  1.022e+000 	
        56.383	  3.670e-002 	             	
        56.440	             	  1.022e+000 	
        56.447	  3.660e-002 	             	
        56.504	             	  1.022e+000 	
        56.511	  3.670e-002 	             	
        56.568	             	  1.022e+000 	
        56.575	  3.680e-002 	             	
        56.632	             	  1.022e+000 	
        56.640	  3.660e-002 	             	
        56.703	  3.680e-002 	             	
        56.728	             	  1.022e+000 	
        56.767	  3.680e-002 	             	
        56.792	             	  1.022e+000 	
        56.856	             	  1.022e+000 	
        56.863	  3.650e-002 	             	
        56.920	             	  1.022e+000 	
        56.927	  3.660e-002 	             	
        56.984	             	  1.021e+000 	
        56.992	  3.670e-002 	             	
        57.048	             	  1.021e+000 	
        57.055	  3.650e-002 	             	
        57.112	             	  1.021e+000 	
        57.119	  3.670e-002 	             	
        57.176	             	  1.021e+000 	
        57.183	  3.660e-002 	             	
        57.240	             	  1.021e+000 	
        57.247	  3.660e-002 	             	
        57.304	             	  1.021e+000 	
        57.311	  3.680e-002 	             	
        57.368	             	  1.022e+000 	
        57.375	  3.680e-002 	             	
        57.432	             	  1.022e+000 	
        57.439	  3.680e-002 	             	
        57.496	             	  1.022e+000 	
        57.503	  3.680e-002 	             	
        57.567	  3.680e-002 	             	
        57.592	             	  1.022e+000 	
        57.656	             	  1.022e+000 	
        57.663	  3.660e-002 	             	
        57.720	             	  1.022e+000 	
        57.727	  3.660e-002 	             	
        57.784	             	  1.023e+000 	
        57.791	  3.670e-002 	             	
        57.848	             	  1.023e+000 	
        57.855	  3.680e-002 	             	
        57.912	             	  1.022e+000 	
        57.919	  3.690e-002 	             	
        57.976	             	  1.022e+000 	
        57.983	  3.680e-002 	             	
        58.040	             	  1.022e+000 	
        58.047	  3.680e-002 	             	
        58.104	             	  1.022e+000 	
        58.111	  3.670e-002 	             	
        58.168	             	  1.021e+000 	
        58.175	  3.680e-002 	             	
        58.232	             	  1.021e+000 	
        58.239	  3.680e-002 	             	
        58.296	             	  1.021e+000 	
        58.303	  3.670e-002 	             	
        58.367	  3.690e-002 	             	
        58.392	             	  1.022e+000 	
        58.456	             	  1.022e+000 	
        58.464	  3.690e-002 	             	
        58.520	             	  1.022e+000 	
        58.527	  3.680e-002 	             	
        58.584	             	  1.022e+000 	
        58.591	  3.680e-002 	             	
        58.648	             	  1.022e+000 	
        58.655	  3.690e-002 	             	
        58.712	             	  1.022e+000 	
        58.719	  3.670e-002 	             	
        58.776	             	  1.022e+000 	
        58.783	  3.670e-002 	             	
        58.840	             	  1.022e+000 	
        58.847	  3.670e-002 	             	
        58.904	             	  1.022e+000 	
        58.911	  3.670e-002 	             	
        58.968	             	  1.022e+000 	
        58.975	  3.670e-002 	             	
        59.032	             	  1.022e+000 	
        59.039	  3.680e-002 	             	
        59.096	             	  1.022e+000 	
        59.103	  3.680e-002 	             	
        59.167	  3.670e-002 	             	
        59.192	             	  1.022e+000 	
        59.256	             	  1.022e+000 	
        59.263	  3.670e-002 	             	
        59.320	             	  1.022e+000 	
        59.327	  3.670e-002 	             	
        59.384	             	  1.022e+000 	
        59.391	  3.660e-002 	             	
        59.448	             	  1.022e+000 	
        59.455	  3.670e-002 	             	
        59.512	             	  1.022e+000 	
        59.519	  3.660e-002 	             	
        59.576	             	  1.022e+000 	
        59.583	  3.670e-002 	             	
        59.640	             	  1.022e+000 	
        59.647	  3.670e-002 	             	
        59.704	             	  1.022e+000 	
        59.711	  3.690e-002 	             	
        59.768	             	  1.021e+000 	
        59.775	  3.700e-002 	             	
        59.832	             	  1.022e+000 	
        59.839	  3.680e-002 	             	
        59.896	             	  1.022e+000 	
        59.903	  3.680e-002 	             	
        59.967	  3.660e-002 	             	
        59.992	             	  1.022e+000 	
        60.056	             	  1.022e+000 	
        60.063	  3.670e-002 	             	
        60.120	             	  1.022e+000 	
        60.127	  3.670e-002 	             	
        60.184	             	  1.022e+000 	
        60.191	  3.680e-002 	             	
        60.248	             	  1.022e+000 	
        60.255	  3.680e-002 	             	
        60.312	             	  1.022e+000 	
        60.319	  3.680e-002 	             	
        60.376	             	  1.022e+000 	
        60.383	  3.690e-002 	             	
        60.440	             	  1.022e+000 	
        60.447	  3.670e-002 	             	
        60.504	             	  1.022e+000 	
        60.511	  3.680e-002 	             	
        60.568	             	  1.022e+000 	
        60.575	  3.680e-002 	             	
        60.632	             	  1.022e+000 	
        60.639	  3.680e-002 	             	
        60.696	             	  1.022e+000 	
        60.703	  3.690e-002 	             	
        60.767	  3.680e-002 	             	
        60.792	             	  1.022e+000 	
        60.856	             	  1.022e+000 	
        60.863	  3.690e-002 	             	
        60.920	             	  1.022e+000 	
        60.927	  3.680e-002 	             	
        60.984	             	  1.022e+000 	
        60.991	  3.690e-002 	             	
        61.048	             	  1.021e+000 	
        61.055	  3.680e-002 	             	
        61.112	             	  1.021e+000 	
        61.119	  3.680e-002 	             	
        61.176	             	  1.021e+000 	
        61.183	  3.680e-002 	             	
        61.240	             	  1.021e+000 	
        61.247	  3.690e-002 	             	
        61.304	             	  1.021e+000 	
        61.311	  3.680e-002 	             	
        61.368	             	  1.021e+000 	
        61.375	  3.680e-002 	             	
        61.432	             	  1.021e+000 	
        61.439	  3.680e-002 	             	
        61.496	             	  1.021e+000 	
        61.503	  3.680e-002 	             	
        61.567	  3.680e-002 	             	
        61.592	             	  1.022e+000 	
        61.656	             	  1.022e+000 	
        61.663	  3.670e-002 	             	
        61.720	             	  1.022e+000 	
        61.727	  3.690e-002 	             	
        61.784	             	  1.021e+000 	
        61.791	  3.670e-002 	             	
        61.848	             	  1.021e+000 	
        61.855	  3.690e-002 	             	
        61.912	             	  1.021e+000 	
        61.919	  3.680e-002 	             	
        61.976	             	  1.021e+000 	
        61.983	  3.670e-002 	             	
        62.040	             	  1.021e+000 	
        62.047	  3.670e-002 	             	
        62.104	             	  1.022e+000 	
        62.111	  3.660e-002 	             	
        62.168	             	  1.022e+000 	
        62.175	  3.660e-002 	             	
        62.232	             	  1.022e+000 	
        62.239	  3.670e-002 	             	
        62.296	             	  1.022e+000 	
        62.303	  3.670e-002 	             	
        62.367	  3.670e-002 	             	
        62.392	             	  1.022e+000 	
        62.456	             	  1.021e+000 	
        62.463	  3.650e-002 	             	
        62.520	             	  1.021e+000 	
        62.527	  3.640e-002 	             	
        62.584	             	  1.021e+000 	
        62.591	  3.660e-002 	             	
        62.648	             	  1.020e+000 	
        62.655	  3.650e-002 	             	
        62.712	             	  1.020e+000 	
        62.719	  3.650e-002 	             	
        62.776	             	  1.021e+000 	
        62.783	  3.640e-002 	             	
        62.840	             	  1.021e+000 	
        62.847	  3.650e-002 	             	
        62.904	             	  1.021e+000 	
        62.911	  3.640e-002 	             	
        62.968	             	  1.021e+000 	
        62.975	  3.630e-002 	             	
        63.032	             	  1.021e+000 	
        63.039	  3.640e-002 	             	
        63.096	             	  1.022e+000 	
        63.103	  3.630e-002 	             	
        63.167	  3.630e-002 	             	
        63.192	             	  1.021e+000 	
        63.256	             	  1.021e+000 	
        63.263	  3.640e-002 	             	
        63.320	             	  1.021e+000 	
        63.327	  3.650e-002 	             	
        63.384	             	  1.021e+000 	
        63.391	  3.660e-002 	             	
        63.448	             	  1.020e+000 	
        63.455	  3.650e-002 	             	
        63.512	             	  1.020e+000 	
        63.519	  3.640e-002 	             	
        63.576	             	  1.020e+000 	
        63.583	  3.630e-002 	             	
        63.640	             	  1.021e+000 	
        63.647	  3.640e-002 	             	
        63.704	             	  1.021e+000 	
        63.711	  3.630e-002 	             	
        63.768	             	  1.021e+000 	
        63.775	  3.630e-002 	             	
        63.832	             	  1.021e+000 	
        63.839	  3.640e-002 	             	
        63.896	             	  1.021e+000 	
        63.903	  3.640e-002 	             	
        63.967	  3.650e-002 	             	
        63.992	             	  1.021e+000 	
        64.056	             	  1.021e+000 	
        64.063	  3.660e-002 	             	
        64.120	             	  1.021e+000 	
        64.127	  3.650e-002 	             	
        64.184	             	  1.021e+000 	
        64.191	  3.650e-002 	             	
        64.248	             	  1.021e+000 	
        64.255	  3.650e-002 	             	
        64.312	             	  1.021e+000 	
        64.319	  3.660e-002 	             	
        64.376	             	  1.021e+000 	
        64.383	  3.650e-002 	             	
        64.440	             	  1.021e+000 	
        64.447	  3.660e-002 	             	
        64.504	             	  1.021e+000 	
        64.511	  3.650e-002 	             	
        64.568	             	  1.021e+000 	
        64.575	  3.670e-002 	             	
        64.632	             	  1.021e+000 	
        64.639	  3.670e-002 	             	
        64.696	             	  1.021e+000 	
        64.703	  3.670e-002 	             	
        64.767	  3.660e-002 	             	
        64.792	             	  1.021e+000 	
        64.831	  3.660e-002 	             	
        64.856	             	  1.021e+000 	
        64.920	             	  1.021e+000 	
        64.927	  3.670e-002 	             	
        64.984	             	  1.021e+000 	
        64.991	  3.660e-002 	             	
        65.048	             	  1.021e+000 	
        65.055	  3.670e-002 	             	
        65.112	             	  1.021e+000 	
        65.119	  3.670e-002 	             	
        65.176	             	  1.021e+000 	
        65.183	  3.660e-002 	             	
        65.240	             	  1.021e+000 	
        65.247	  3.660e-002 	             	
        65.304	             	  1.021e+000 	
        65.311	  3.670e-002 	             	
        65.368	             	  1.021e+000 	
        65.375	  3.670e-002 	             	
        65.432	             	  1.021e+000 	
        65.439	  3.690e-002 	             	
        65.496	             	  1.021e+000 	
        65.503	  3.710e-002 	             	
        65.567	  3.690e-002 	             	
        65.592	             	  1.021e+000 	
        65.631	  3.700e-002 	             	
        65.656	             	  1.021e+000 	
        65.720	             	  1.020e+000 	
        65.727	  3.690e-002 	             	
        65.784	             	  1.020e+000 	
        65.791	  3.690e-002 	             	
        65.848	             	  1.020e+000 	
        65.855	  3.690e-002 	             	
        65.912	             	  1.021e+000 	
        65.919	  3.700e-002 	             	
        65.976	             	  1.021e+000 	
        65.983	  3.700e-002 	             	
        66.040	             	  1.021e+000 	
        66.047	  3.700e-002 	             	
        66.104	             	  1.021e+000 	
        66.111	  3.700e-002 	             	
        66.168	             	  1.022e+000 	
        66.175	  3.700e-002 	             	
        66.232	             	  1.022e+000 	
        66.239	  3.690e-002 	             	
        66.296	             	  1.022e+000 	
        66.303	  3.700e-002 	             	
        66.367	  3.690e-002 	             	
        66.392	             	  1.022e+000 	
        66.431	  3.680e-002 	             	
        66.456	             	  1.022e+000 	
        66.520	             	  1.022e+000 	
        66.527	  3.690e-002 	             	
        66.584	             	  1.022e+000 	
        66.591	  3.680e-002 	             	
        66.648	             	  1.022e+000 	
        66.655	  3.690e-002 	             	
        66.712	             	  1.022e+000 	
        66.719	  3.690e-002 	             	
        66.776	             	  1.022e+000 	
        66.783	  3.700e-002 	             	
        66.840	             	  1.021e+000 	
        66.847	  3.670e-002 	             	
        66.904	             	  1.021e+000 	
        66.911	  3.680e-002 	             	
        66.968	             	  1.021e+000 	
        66.975	  3.700e-002 	             	
        67.032	             	  1.021e+000 	
        67.039	  3.690e-002 	             	
        67.096	             	  1.021e+000 	
        67.103	  3.660e-002 	             	
        67.167	  3.680e-002 	             	
        67.192	             	  1.022e+000 	
        67.231	  3.670e-002 	             	
        67.256	             	  1.022e+000 	
        67.320	             	  1.022e+000 	
        67.327	  3.670e-002 	             	
        67.384	             	  1.022e+000 	
        67.391	  3.660e-002 	             	
        67.448	             	  1.022e+000 	
        67.455	  3.660e-002 	             	
        67.512	             	  1.021e+000 	
        67.519	  3.670e-002 	             	
        67.576	             	  1.021e+000 	
        67.583	  3.680e-002 	             	
        67.640	             	  1.021e+000 	
        67.647	  3.640e-002 	             	
        67.704	             	  1.021e+000 	
        67.711	  3.640e-002 	             	
        67.768	             	  1.021e+000 	
        67.775	  3.650e-002 	             	
        67.832	             	  1.021e+000 	
        67.839	  3.660e-002 	             	
        67.896	             	  1.021e+000 	
        67.903	  3.660e-002 	             	
        67.967	  3.640e-002 	             	
        67.992	             	  1.021e+000 	
        68.031	  3.620e-002 	             	
        68.056	             	  1.021e+000 	
        68.120	             	  1.021e+000 	
        68.127	  3.640e-002 	             	
        68.184	             	  1.021e+000 	
        68.191	  3.640e-002 	             	
        68.248	             	  1.021e+000 	
        68.255	  3.630e-002 	             	
        68.312	             	  1.021e+000 	
        68.319	  3.640e-002 	             	
        68.376	             	  1.021e+000 	
        68.383	  3.640e-002 	             	
        68.440	             	  1.022e+000 	
        68.447	  3.630e-002 	             	
        68.504	             	  1.022e+000 	
        68.511	  3.640e-002 	             	
        68.568	             	  1.022e+000 	
        68.575	  3.630e-002 	             	
        68.632	             	  1.022e+000 	
        68.639	  3.640e-002 	             	
        68.696	             	  1.022e+000 	
        68.703	  3.640e-002 	             	
        68.767	  3.660e-002 	             	
        68.792	             	  1.022e+000 	
        68.831	  3.650e-002 	             	
        68.855	             	  1.022e+000 	
        68.920	             	  1.021e+000 	
        68.928	  3.620e-002 	             	
        68.985	             	  1.021e+000 	
        68.992	  3.640e-002 	             	
        69.048	             	  1.021e+000 	
        69.056	  3.650e-002 	             	
        69.113	             	  1.021e+000 	
        69.120	  3.660e-002 	             	
        69.177	             	  1.021e+000 	
        69.184	  3.640e-002 	             	
        69.241	             	  1.021e+000 	
        69.248	  3.640e-002 	             	
        69.305	             	  1.021e+000 	
        69.312	  3.640e-002 	             	
        69.369	             	  1.021e+000 	
        69.376	  3.660e-002 	             	
        69.433	             	  1.022e+000 	
        69.440	  3.640e-002 	             	
        69.497	             	  1.022e+000 	
        69.504	  3.650e-002 	             	
        69.568	  3.650e-002 	             	
        69.593	             	  1.022e+000 	
        69.632	  3.640e-002 	             	
        69.656	             	  1.022e+000 	
        69.721	             	  1.022e+000 	
        69.728	  3.670e-002 	             	
        69.784	             	  1.022e+000 	
        69.792	  3.650e-002 	             	
        69.848	             	  1.022e+000 	
        69.856	  3.670e-002 	             	
        69.912	             	  1.022e+000 	
        69.920	  3.660e-002 	             	
        69.976	             	  1.022e+000 	
        69.984	  3.670e-002 	             	
        70.040	             	  1.022e+000 	
        70.048	  3.660e-002 	             	
        70.104	             	  1.022e+000 	
        70.112	  3.670e-002 	             	
        70.169	             	  1.022e+000 	
        70.176	  3.680e-002 	             	
        70.232	             	  1.022e+000 	
        70.240	  3.690e-002 	             	
        70.296	             	  1.022e+000 	
        70.304	  3.690e-002 	             	
        70.360	             	  1.022e+000 	
        70.368	  3.690e-002 	             	
        70.432	  3.690e-002 	             	
        70.456	             	  1.022e+000 	
        70.520	             	  1.021e+000 	
        70.528	  3.690e-002 	             	
        70.584	             	  1.021e+000 	
        70.592	  3.690e-002 	             	
        70.648	             	  1.022e+000 	
        70.656	  3.680e-002 	             	
        70.712	             	  1.022e+000 	
        70.720	  3.690e-002 	             	
        70.776	             	  1.022e+000 	
        70.784	  3.690e-002 	             	
        70.840	             	  1.022e+000 	
        70.848	  3.690e-002 	             	
        70.904	             	  1.022e+000 	
        70.912	  3.690e-002 	             	
        70.968	             	  1.022e+000 	
        70.976	  3.690e-002 	             	
        71.032	             	  1.022e+000 	
        71.040	  3.700e-002 	             	
        71.096	             	  1.022e+000 	
        71.104	  3.700e-002 	             	
        71.160	             	  1.022e+000 	
        71.168	  3.700e-002 	             	
        71.232	  3.710e-002 	             	
        71.256	             	  1.022e+000 	
        71.320	             	  1.022e+000 	
        71.328	  3.720e-002 	             	
        71.384	             	  1.022e+000 	
        71.392	  3.700e-002 	             	
        71.448	             	  1.022e+000 	
        71.456	  3.690e-002 	             	
        71.512	             	  1.022e+000 	
        71.520	  3.690e-002 	             	
        71.576	             	  1.022e+000 	
        71.584	  3.700e-002 	             	
        71.640	             	  1.022e+000 	
        71.648	  3.710e-002 	             	
        71.704	             	  1.022e+000 	
        71.712	  3.680e-002 	             	
        71.768	             	  1.022e+000 	
        71.776	  3.690e-002 	             	
        71.832	             	  1.023e+000 	
        71.840	  3.690e-002 	             	
        71.897	             	  1.023e+000 	
        71.904	  3.690e-002 	             	
        71.960	             	  1.022e+000 	
        71.968	  3.680e-002 	             	
        72.032	  3.670e-002 	             	
        72.056	             	  1.022e+000 	
        72.120	             	  1.022e+000 	
        72.128	  3.700e-002 	             	
        72.184	             	  1.022e+000 	
        72.192	  3.680e-002 	             	
        72.248	             	  1.022e+000 	
        72.256	  3.680e-002 	             	
        72.312	             	  1.022e+000 	
        72.320	  3.680e-002 	             	
        72.376	             	  1.022e+000 	
        72.384	  3.670e-002 	             	
        72.440	             	  1.022e+000 	
        72.448	  3.680e-002 	             	
        72.504	             	  1.022e+000 	
        72.512	  3.680e-002 	             	
        72.568	             	  1.022e+000 	
        72.576	  3.670e-002 	             	
        72.632	             	  1.022e+000 	
        72.640	  3.670e-002 	             	
        72.696	             	  1.022e+000 	
        72.704	  3.680e-002 	             	
        72.760	             	  1.022e+000 	
        72.768	  2.770e-002 	             	
        72.832	  2.770e-002 	             	
        72.856	             	  1.020e+000 	
        72.920	             	  1.011e+000 	
        72.928	  2.760e-002 	             	
        72.984	             	  9.940e-001 	
        73.048	             	  9.720e-001 	
        73.112	             	  9.450e-001 	
        73.176	             	  9.180e-001 	
        73.183	  2.517e-002 	             	
        73.240	             	  8.910e-001 	
        73.248	  2.247e-002 	             	
        73.304	             	  8.670e-001 	
        73.311	  2.231e-002 	             	
        73.368	             	  8.440e-001 	
        73.376	  2.241e-002 	             	
        73.432	             	  8.230e-001 	
        73.440	  2.238e-002 	             	
        73.496	             	  8.020e-001 	
        73.504	  2.241e-002 	             	
        73.560	             	  7.840e-001 	
        73.568	  2.240e-002 	             	
        73.632	  1.947e-002 	             	
        73.656	             	  7.690e-001 	
        73.720	             	  7.540e-001 	
        73.728	  1.952e-002 	             	
        73.784	             	  7.400e-001 	
        73.792	  1.958e-002 	             	
        73.848	             	  7.250e-001 	
        73.855	  1.955e-002 	             	
        73.912	             	  7.110e-001 	
        73.919	  1.689e-002 	             	
        73.976	             	  6.970e-001 	
        73.983	  1.663e-002 	             	
        74.040	             	  6.820e-001 	
        74.047	  1.658e-002 	             	
        74.104	             	  6.660e-001 	
        74.112	  1.667e-002 	             	
        74.168	             	  6.500e-001 	
        74.175	  1.645e-002 	             	
        74.232	             	  6.340e-001 	
        74.239	  1.377e-002 	             	
        74.296	             	  6.180e-001 	
        74.303	  1.389e-002 	             	
        74.360	             	  6.010e-001 	
        74.368	  1.378e-002 	             	
        74.431	  1.383e-002 	             	
        74.456	             	  5.830e-001 	
        74.520	             	  5.660e-001 	
        74.528	  1.377e-002 	             	
        74.584	             	  5.500e-001 	
        74.591	  1.100e-002 	             	
        74.648	             	  5.340e-001 	
        74.656	  1.094e-002 	             	
        74.712	             	  5.180e-001 	
        74.719	  1.091e-002 	             	
        74.776	             	  5.010e-001 	
        74.783	  1.092e-002 	             	
        74.840	             	  4.840e-001 	
        74.848	  1.090e-002 	             	
        74.904	             	  4.690e-001 	
        74.911	  1.090e-002 	             	
        74.968	             	  4.540e-001 	
        74.975	  1.094e-002 	             	
        75.032	             	  4.420e-001 	
        75.039	  8.150e-003 	             	
        75.096	             	  4.310e-001 	
        75.103	  8.170e-003 	             	
        75.160	             	  4.180e-001 	
        75.167	  8.100e-003 	             	
        75.231	  8.080e-003 	             	
        75.256	             	  4.040e-001 	
        75.320	             	  3.900e-001 	
        75.327	  8.150e-003 	             	
        75.384	             	  3.770e-001 	
        75.391	  8.120e-003 	             	
        75.448	             	  3.640e-001 	
        75.455	  8.150e-003 	             	
        75.512	             	  3.520e-001 	
        75.519	  8.080e-003 	             	
        75.576	             	  3.420e-001 	
        75.583	  8.100e-003 	             	
        75.640	             	  3.340e-001 	
        75.647	  5.350e-003 	             	
        75.704	             	  3.260e-001 	
        75.711	  5.380e-003 	             	
        75.768	             	  3.160e-001 	
        75.775	  5.360e-003 	             	
        75.832	             	  3.050e-001 	
        75.839	  5.360e-003 	             	
        75.896	             	  2.920e-001 	
        75.903	  5.380e-003 	             	
        75.960	             	  2.800e-001 	
        75.967	  5.360e-003 	             	
        76.031	  5.330e-003 	             	
        76.128	  5.370e-003 	             	
        76.191	  5.360e-003 	             	
        76.255	  5.340e-003 	             	
        76.319	  5.300e-003 	             	
        76.383	  5.310e-003 	             	
        76.447	  5.310e-003 	             	
        76.511	  5.330e-003 	             	
        76.575	  5.290e-003 	             	
        76.639	  5.290e-003 	             	
        76.703	  5.310e-003 	             	
        76.767	  5.280e-003 	             	
        76.831	  5.280e-003 	             	
        76.927	  5.300e-003 	             	
        76.991	  5.260e-003 	             	
        77.055	  5.230e-003 	             	
        77.119	  5.230e-003 	             	
        77.183	  5.280e-003 	             	
        77.247	  5.250e-003 	             	
        77.304	             	  8.820e-002 	
        77.311	  5.250e-003 	             	
        77.368	             	  9.430e-002 	
        77.375	  5.210e-003 	             	
        77.432	             	  1.108e-001 	
        77.439	  5.220e-003 	             	
        77.496	             	  1.299e-001 	
        77.503	  5.250e-003 	             	
        77.560	             	  1.474e-001 	
        77.567	  5.180e-003 	             	
        77.631	  5.230e-003 	             	
        77.656	             	  1.616e-001 	
        77.720	             	  1.721e-001 	
        77.727	  5.230e-003 	             	
        77.784	             	  1.792e-001 	
        77.791	  5.180e-003 	             	
        77.848	             	  1.836e-001 	
        77.855	  5.170e-003 	             	
        77.912	             	  1.859e-001 	
        77.919	  5.170e-003 	             	
        77.976	             	  1.867e-001 	
        77.983	  5.170e-003 	             	
        78.040	             	  1.865e-001 	
        78.047	  5.130e-003 	             	
        78.104	             	  1.859e-001 	
        78.111	  5.200e-003 	             	
        78.168	             	  1.849e-001 	
        78.175	  5.120e-003 	             	
        78.232	             	  1.838e-001 	
        78.239	  5.170e-003 	             	
        78.296	             	  1.827e-001 	
        78.303	  5.120e-003 	             	
        78.360	             	  1.816e-001 	
        78.367	  5.090e-003 	             	
        78.431	  5.120e-003 	             	
        78.456	             	  1.806e-001 	
        78.520	             	  1.796e-001 	
        78.527	  5.110e-003 	             	
        78.584	             	  1.787e-001 	
        78.591	  5.100e-003 	             	
        78.648	             	  1.780e-001 	
        78.655	  5.080e-003 	             	
        78.712	             	  1.773e-001 	
        78.719	  5.080e-003 	             	
        78.776	             	  1.768e-001 	
        78.783	  5.070e-003 	             	
        78.840	             	  1.763e-001 	
        78.847	  5.060e-003 	             	
        78.904	             	  1.758e-001 	
        78.911	  5.080e-003 	             	
        78.968	             	  1.753e-001 	
        78.975	  5.060e-003 	             	
        79.032	             	  1.749e-001 	
        79.039	  5.060e-003 	             	
        79.096	             	  1.744e-001 	
        79.103	  5.100e-003 	             	
        79.160	             	  1.740e-001 	
        79.167	  5.090e-003 	             	
        79.231	  5.080e-003 	             	
        79.256	             	  1.737e-001 	
        79.295	  5.020e-003 	             	
        79.320	             	  1.735e-001 	
        79.384	             	  1.732e-001 	
        79.391	  5.050e-003 	             	
        79.448	             	  1.729e-001 	
        79.455	  5.110e-003 	             	
        79.512	             	  1.727e-001 	
        79.519	  5.060e-003 	             	
        79.576	             	  1.725e-001 	
        79.583	  5.030e-003 	             	
        79.640	             	  1.723e-001 	
        79.647	  5.030e-003 	             	
        79.704	             	  1.721e-001 	
        79.711	  5.060e-003 	             	
        79.768	             	  1.719e-001 	
        79.775	  5.070e-003 	             	
        79.832	             	  1.717e-001 	
        79.839	  5.060e-003 	             	
        79.896	             	  1.716e-001 	
        79.903	  5.040e-003 	             	
        79.960	             	  1.714e-001 	
        79.967	  5.010e-003 	             	
        80.031	  5.040e-003 	             	
        80.056	             	  1.712e-001 	
        80.095	  5.060e-003 	             	
        80.120	             	  1.710e-001 	
        80.184	             	  1.708e-001 	
        80.191	  5.050e-003 	             	
        80.248	             	  1.706e-001 	
        80.255	  5.070e-003 	             	
        80.312	             	  1.705e-001 	
        80.319	  5.110e-003 	             	
        80.376	             	  1.703e-001 	
        80.383	  5.040e-003 	             	
        80.440	             	  1.701e-001 	
        80.447	  5.060e-003 	             	
        80.504	             	  1.699e-001 	
        80.511	  5.070e-003 	             	
        80.568	             	  1.698e-001 	
        80.575	  5.070e-003 	             	
        80.632	             	  1.697e-001 	
        80.639	  5.090e-003 	             	
        80.696	             	  1.697e-001 	
        80.703	  5.070e-003 	             	
        80.760	             	  1.695e-001 	
        80.767	  5.060e-003 	             	
        80.831	  5.080e-003 	             	
        80.856	             	  1.694e-001 	
        80.895	  5.100e-003 	             	
        80.920	             	  1.693e-001 	
        80.984	             	  1.693e-001 	
        80.991	  5.080e-003 	             	
        81.048	             	  1.693e-001 	
        81.055	  4.470e-003 	             	
        81.112	             	  1.692e-001 	
        81.119	  1.000e-005 	             	
        81.176	             	  1.692e-001 	
        81.183	  0.000e+000 	             	
        81.240	             	  1.692e-001 	
        81.247	  1.000e-005 	             	
        81.304	             	  1.691e-001 	
        81.311	  1.000e-005 	             	
        81.368	             	  1.691e-001 	
        81.375	  1.000e-005 	             	
        81.432	             	  1.690e-001 	
        81.439	  1.000e-005 	             	
        81.497	             	  1.690e-001 	
        81.503	  1.000e-005 	             	
        81.560	             	  1.690e-001 	
        81.567	  1.000e-005 	             	
        81.631	  0.000e+000 	             	
        81.656	             	  1.690e-001 	
        81.695	  0.000e+000 	             	
        81.720	             	  1.689e-001 	
        81.784	             	  1.688e-001 	
        81.791	  1.000e-005 	             	
        81.848	             	  1.687e-001 	
        81.855	  1.000e-005 	             	
        81.912	             	  1.687e-001 	
        81.919	  1.000e-005 	             	
        81.976	             	  1.687e-001 	
        81.983	  1.000e-005 	             	
        82.040	             	  1.687e-001 	
        82.047	  1.000e-005 	             	
        82.104	             	  1.687e-001 	
        82.111	  1.000e-005 	             	
        82.168	             	  1.686e-001 	
        82.175	  1.000e-005 	             	
        82.232	             	  1.686e-001 	
        82.239	  1.000e-005 	             	
        82.296	             	  1.685e-001 	
        82.303	  1.000e-005 	             	
        82.360	             	  1.685e-001 	
        82.367	  1.000e-005 	             	
        82.431	  1.000e-005 	             	
        82.456	             	  1.685e-001 	
        82.495	  1.000e-005 	             	
        82.520	             	  1.685e-001 	
        82.584	             	  1.685e-001 	
        82.591	  1.000e-005 	             	
        82.648	             	  1.685e-001 	
        82.655	  1.000e-005 	             	
        82.712	             	  1.684e-001 	
        82.719	  1.000e-005 	             	
        82.776	             	  1.683e-001 	
        82.783	  1.000e-005 	             	
        82.840	             	  1.683e-001 	
        82.847	  1.000e-005 	             	
        82.904	             	  1.682e-001 	
        82.911	  1.000e-005 	             	
        82.968	             	  1.681e-001 	
        82.975	  1.000e-005 	             	
        83.032	             	  1.682e-001 	
        83.039	  1.000e-005 	             	
        83.096	             	  1.682e-001 	
        83.103	  1.000e-005 	             	
        83.160	             	  1.682e-001 	
        83.167	  1.000e-005 	             	
        83.224	             	  1.682e-001 	
        83.231	  1.000e-005 	             	
        83.295	  1.000e-005 	             	
        83.320	             	  1.682e-001 	
        83.384	             	  1.681e-001 	
        83.391	  1.000e-005 	             	
        83.448	             	  1.681e-001 	
        83.455	  1.000e-005 	             	
        83.512	             	  1.681e-001 	
        83.519	  1.000e-005 	             	
        83.576	             	  1.681e-001 	
        83.583	  1.000e-005 	             	
        83.640	             	  1.680e-001 	
        83.647	  1.000e-005 	             	
        83.704	             	  1.680e-001 	
        83.711	  1.000e-005 	             	
        83.768	             	  1.679e-001 	
        83.775	  1.000e-005 	             	
        83.832	             	  1.679e-001 	
        83.839	  1.000e-005 	             	
        83.896	             	  1.678e-001 	
        83.903	  1.000e-005 	             	
        83.960	             	  1.678e-001 	
        83.967	  1.000e-005 	             	
        84.024	             	  1.678e-001 	
        84.031	  1.000e-005 	             	
        84.095	  1.000e-005 	             	
        84.120	             	  1.678e-001 	
        84.184	             	  1.678e-001 	
        84.191	  1.000e-005 	             	
        84.248	             	  1.679e-001 	
        84.255	  1.000e-005 	             	
        84.312	             	  1.679e-001 	
        84.319	  1.000e-005 	             	
        84.376	             	  1.678e-001 	
        84.383	  1.000e-005 	             	
        84.440	             	  1.678e-001 	
        84.447	  1.000e-005 	             	
        84.504	             	  1.678e-001 	
        84.511	  1.000e-005 	             	
        84.568	             	  1.678e-001 	
        84.575	  1.000e-005 	             	
        84.632	             	  1.677e-001 	
        84.639	  1.000e-005 	             	
        84.696	             	  1.677e-001 	
        84.703	  1.000e-005 	             	
        84.760	             	  1.677e-001 	
        84.767	  1.000e-005 	             	
        84.824	             	  1.677e-001 	
        84.831	  1.000e-005 	             	
        84.895	  1.000e-005 	             	
        84.920	             	  1.677e-001 	
        84.984	             	  1.677e-001 	
        84.991	  1.000e-005 	             	
        85.048	             	  1.677e-001 	
        85.055	  1.000e-005 	             	
        85.112	             	  1.676e-001 	
        85.119	  1.000e-005 	             	
        85.176	             	  1.675e-001 	
        85.183	  1.000e-005 	             	
        85.240	             	  1.676e-001 	
        85.247	  1.000e-005 	             	
        85.304	             	  1.677e-001 	
        85.311	  1.000e-005 	             	
        85.368	             	  1.678e-001 	
        85.375	  1.000e-005 	             	
        85.432	             	  1.679e-001 	
        85.439	  1.000e-005 	             	
        85.496	             	  1.679e-001 	
        85.503	  1.000e-005 	             	
        85.560	             	  1.679e-001 	
        85.567	  1.000e-005 	             	
        85.624	             	  1.679e-001 	
        85.631	  1.000e-005 	             	
        85.695	  1.000e-005 	             	
        85.720	             	  1.678e-001 	
        85.784	             	  1.677e-001 	
        85.791	  1.000e-005 	             	
        85.847	             	  1.677e-001 	
        85.855	  1.000e-005 	             	
        85.912	             	  1.678e-001 	
        85.919	  1.000e-005 	             	
        85.976	             	  1.678e-001 	
        85.983	  1.000e-005 	             	
        86.039	             	  1.679e-001 	
        86.047	  1.000e-005 	             	
        86.104	             	  1.679e-001 	
        86.111	  1.000e-005 	             	
        86.168	             	  1.679e-001 	
        86.175	  0.000e+000 	             	
        86.232	             	  1.678e-001 	
        86.239	  1.000e-005 	             	
        86.296	             	  1.677e-001 	
        86.303	  0.000e+000 	             	
        86.359	             	  1.677e-001 	
        86.367	  0.000e+000 	             	
        86.425	             	  1.676e-001 	
        86.432	  0.000e+000 	             	
        86.496	  0.000e+000 	             	
        86.521	             	  1.676e-001 	
        86.585	             	  1.675e-001 	
        86.592	  0.000e+000 	             	
        86.649	             	  1.675e-001 	
        86.656	  0.000e+000 	             	
        86.713	             	  1.675e-001 	
        86.720	  0.000e+000 	             	
        86.777	             	  1.675e-001 	
        86.784	  0.000e+000 	             	
        86.841	             	  1.676e-001 	
        86.848	  0.000e+000 	             	
        86.905	             	  1.677e-001 	
        86.912	  0.000e+000 	             	
        86.969	             	  1.678e-001 	
        86.976	  0.000e+000 	             	
        87.032	             	  1.678e-001 	
        87.040	  0.000e+000 	             	
        87.096	             	  1.678e-001 	
        87.104	  0.000e+000 	             	
        87.160	             	  1.678e-001 	
        87.168	  0.000e+000 	             	
        87.225	             	  1.678e-001 	
        87.232	  0.000e+000 	             	
        87.296	  0.000e+000 	             	
        87.321	             	  1.678e-001 	
        87.384	             	  1.678e-001 	
        87.392	  0.000e+000 	             	
        87.448	             	  1.678e-001 	
        87.456	  0.000e+000 	             	
        87.512	             	  1.679e-001 	
        87.520	  0.000e+000 	             	
        87.576	             	  1.679e-001 	
        87.584	  0.000e+000 	             	
        87.641	             	  1.679e-001 	
        87.648	  0.000e+000 	             	
        87.705	             	  1.679e-001 	
        87.712	  0.000e+000 	             	
        87.769	             	  1.678e-001 	
        87.776	  0.000e+000 	             	
        87.832	             	  1.678e-001 	
        87.840	  0.000e+000 	             	
        87.896	             	  1.678e-001 	
        87.904	  0.000e+000 	             	
        87.960	             	  1.677e-001 	
        87.968	  0.000e+000 	             	
        88.025	             	  1.677e-001 	
        88.032	  1.000e-005 	             	
        88.096	  1.000e-005 	             	
        88.120	             	  1.677e-001 	
        88.184	             	  1.676e-001 	
        88.192	  0.000e+000 	             	
        88.248	             	  1.676e-001 	
        88.256	  1.000e-005 	             	
        88.312	             	  1.676e-001 	
        88.320	  1.000e-005 	             	
        88.376	             	  1.675e-001 	
        88.384	  1.000e-005 	             	
        88.440	             	  1.675e-001 	
        88.448	  1.000e-005 	             	
        88.504	             	  1.674e-001 	
        88.512	  1.000e-005 	             	
        88.568	             	  1.674e-001 	
        88.576	  1.000e-005 	             	
        88.632	             	  1.675e-001 	
        88.640	  1.000e-005 	             	
        88.697	             	  1.675e-001 	
        88.704	  1.000e-005 	             	
        88.761	             	  1.675e-001 	
        88.768	  1.000e-005 	             	
        88.824	             	  1.675e-001 	
        88.832	  1.000e-005 	             	
        88.896	  1.000e-005 	             	
        88.920	             	  1.675e-001 	
        88.984	             	  1.675e-001 	
        88.992	  1.000e-005 	             	
        89.049	             	  1.675e-001 	
        89.056	  1.000e-005 	             	
        89.112	             	  1.676e-001 	
        89.120	  1.000e-005 	             	
        89.176	             	  1.676e-001 	
        89.184	  1.000e-005 	             	
        89.240	             	  1.676e-001 	
        89.248	  1.000e-005 	             	
        89.304	             	  1.677e-001 	
        89.312	  1.000e-005 	             	
        89.368	             	  1.677e-001 	
        89.376	  1.000e-005 	             	
        89.432	             	  1.677e-001 	
        89.440	  1.000e-005 	             	
        89.496	             	  1.677e-001 	
        89.504	  1.000e-005 	             	
        89.560	             	  1.676e-001 	
        89.568	  0.000e+000 	             	
        89.624	             	  1.677e-001 	
        89.632	  0.000e+000 	             	
        89.696	  0.000e+000 	             	
        89.720	             	  1.677e-001 	
        89.784	             	  1.677e-001 	
        89.792	  1.000e-005 	             	
        89.848	             	  1.677e-001 	
        89.856	  0.000e+000 	             	
        89.912	             	  1.677e-001 	
        89.920	  0.000e+000 	             	
        89.976	             	  1.677e-001 	
        89.983	  0.000e+000 	             	
        90.040	             	  1.677e-001 	
        90.048	  0.000e+000 	             	
        90.104	             	  1.677e-001 	
        90.112	  0.000e+000 	             	
        90.168	             	  1.677e-001 	
        90.176	  0.000e+000 	             	
        90.232	             	  1.678e-001 	
        90.240	  0.000e+000 	             	
        90.296	             	  1.678e-001 	
        90.304	  0.000e+000 	             	
        90.360	             	  1.678e-001 	
        90.368	  0.000e+000 	             	
        90.424	             	  1.678e-001 	
        90.432	  0.000e+000 	             	
        90.496	  0.000e+000 	             	
        90.520	             	  1.679e-001 	
        90.584	             	  1.679e-001 	
        90.592	  0.000e+000 	             	
        90.648	             	  1.679e-001 	
        90.656	  0.000e+000 	             	
        90.712	             	  1.679e-001 	
        90.720	  0.000e+000 	             	
        90.776	             	  1.678e-001 	
        90.784	  0.000e+000 	             	
        90.840	             	  1.677e-001 	
        90.848	  0.000e+000 	             	
        90.904	             	  1.676e-001 	
        90.912	  0.000e+000 	             	
        90.968	             	  1.676e-001 	
        90.976	  0.000e+000 	             	
        91.032	             	  1.675e-001 	
        91.039	  0.000e+000 	             	
        91.096	             	  1.676e-001 	
        91.104	  0.000e+000 	             	
        91.160	             	  1.676e-001 	
        91.168	  0.000e+000 	             	
        91.224	             	  1.676e-001 	
        91.231	  0.000e+000 	             	
        91.295	  0.000e+000 	             	
        91.320	             	  1.677e-001 	
        91.384	             	  1.678e-001 	
        91.392	  0.000e+000 	             	
        91.448	             	  1.677e-001 	
        91.456	  0.000e+000 	             	
        91.512	             	  1.678e-001 	
        91.520	  0.000e+000 	             	
        91.576	             	  1.677e-001 	
        91.584	  0.000e+000 	             	
        91.640	             	  1.678e-001 	
        91.648	  0.000e+000 	             	
        91.704	             	  1.677e-001 	
        91.711	  0.000e+000 	             	
        91.768	             	  1.677e-001 	
        91.776	  0.000e+000 	             	
        91.832	             	  1.677e-001 	
        91.839	  0.000e+000 	             	
        91.896	             	  1.677e-001 	
        91.903	  0.000e+000 	             	
        91.960	             	  1.678e-001 	
        91.967	  0.000e+000 	             	
        92.024	             	  1.678e-001 	
        92.031	  0.000e+000 	             	
        92.095	  0.000e+000 	             	
        92.120	             	  1.677e-001 	
        92.159	  0.000e+000 	             	
        92.184	             	  1.677e-001 	
        92.248	             	  1.677e-001 	
        92.256	  0.000e+000 	             	
        92.312	             	  1.676e-001 	
        92.319	  0.000e+000 	             	
        92.376	             	  1.676e-001 	
        92.383	  0.000e+000 	             	
        92.440	             	  1.677e-001 	
        92.447	  0.000e+000 	             	
        92.504	             	  1.677e-001 	
        92.511	  0.000e+000 	             	
        92.568	             	  1.676e-001 	
        92.575	  0.000e+000 	             	
        92.632	             	  1.676e-001 	
        92.639	  0.000e+000 	             	
        92.696	             	  1.675e-001 	
        92.704	  0.000e+000 	             	
        92.760	             	  1.675e-001 	
        92.767	  0.000e+000 	             	
        92.824	             	  1.675e-001 	
        92.831	  0.000e+000 	             	
        92.895	  0.000e+000 	             	
        92.920	             	  1.675e-001 	
        92.959	  0.000e+000 	             	
        92.984	             	  1.674e-001 	
        93.048	             	  1.674e-001 	
        93.055	  0.000e+000 	             	
        93.112	             	  1.674e-001 	
        93.119	  0.000e+000 	             	
        93.176	             	  1.675e-001 	
        93.183	  0.000e+000 	             	
        93.240	             	  1.675e-001 	
        93.247	  0.000e+000 	             	
        93.304	             	  1.675e-001 	
        93.311	  0.000e+000 	             	
        93.368	             	  1.675e-001 	
        93.375	  0.000e+000 	             	
        93.432	             	  1.675e-001 	
        93.439	  0.000e+000 	             	
        93.496	             	  1.674e-001 	
        93.503	  0.000e+000 	             	
        93.560	             	  1.674e-001 	
        93.567	  0.000e+000 	             	
        93.624	             	  1.674e-001 	
        93.631	  0.000e+000 	             	
        93.695	  0.000e+000 	             	
        93.720	             	  1.673e-001 	
        93.759	  0.000e+000 	             	
        93.784	             	  1.673e-001 	
        93.848	             	  1.673e-001 	
        93.855	  0.000e+000 	             	
        93.912	             	  1.673e-001 	
        93.919	  0.000e+000 	             	
        93.976	             	  1.673e-001 	
        93.983	  0.000e+000 	             	
        94.040	             	  1.674e-001 	
        94.047	  0.000e+000 	             	
        94.104	             	  1.673e-001 	
        94.111	  0.000e+000 	             	
        94.168	             	  1.673e-001 	
        94.175	  0.000e+000 	             	
        94.232	             	  1.673e-001 	
        94.239	  0.000e+000 	             	
        94.296	             	  1.673e-001 	
        94.303	  0.000e+000 	             	
        94.360	             	  1.673e-001 	
        94.367	  0.000e+000 	             	
        94.424	             	  1.674e-001 	
        94.431	  0.000e+000 	             	
        94.495	  0.000e+000 	             	
        94.520	             	  1.674e-001 	
        94.559	  0.000e+000 	             	
        94.584	             	  1.674e-001 	
        94.648	             	  1.674e-001 	
        94.655	  0.000e+000 	             	
        94.712	             	  1.673e-001 	
        94.719	  0.000e+000 	             	
        94.776	             	  1.674e-001 	
        94.783	  0.000e+000 	             	
        94.840	             	  1.674e-001 	
        94.847	  0.000e+000 	             	
        94.904	             	  1.674e-001 	
        94.911	  0.000e+000 	             	
        94.968	             	  1.673e-001 	
        94.975	  0.000e+000 	             	
        95.032	             	  1.674e-001 	
        95.039	  0.000e+000 	             	
        95.096	             	  1.674e-001 	
        95.103	  0.000e+000 	             	
        95.160	             	  1.674e-001 	
        95.167	  0.000e+000 	             	
        95.224	             	  1.675e-001 	
        95.231	  0.000e+000 	             	
        95.295	  0.000e+000 	             	
        95.320	             	  1.675e-001 	
        95.359	  0.000e+000 	             	
        95.384	             	  1.674e-001 	
        95.448	             	  1.674e-001 	
        95.455	  0.000e+000 	             	
        95.512	             	  1.674e-001 	
        95.519	  0.000e+000 	             	
        95.576	             	  1.674e-001 	
        95.583	  0.000e+000 	             	
        95.640	             	  1.674e-001 	
        95.647	  0.000e+000 	             	
        95.704	             	  1.675e-001 	
        95.711	  0.000e+000 	             	
        95.768	             	  1.674e-001 	
        95.775	  0.000e+000 	             	
        95.832	             	  1.675e-001 	
        95.839	  0.000e+000 	             	
        95.896	             	  1.674e-001 	
        95.903	  0.000e+000 	             	
        95.960	             	  1.673e-001 	
        95.967	  0.000e+000 	             	
        96.024	             	  1.672e-001 	
        96.031	  0.000e+000 	             	
        96.088	             	  1.671e-001 	
        96.095	  0.000e+000 	             	
        96.159	  0.000e+000 	             	
        96.184	             	  1.671e-001 	
        96.248	             	  1.671e-001 	
        96.255	  0.000e+000 	             	
        96.312	             	  1.671e-001 	
        96.319	  0.000e+000 	             	
        96.376	             	  1.671e-001 	
        96.383	  0.000e+000 	             	
        96.440	             	  1.672e-001 	
        96.447	  0.000e+000 	             	
        96.504	             	  1.673e-001 	
        96.511	  0.000e+000 	             	
        96.568	             	  1.673e-001 	
        96.575	  0.000e+000 	             	
        96.632	             	  1.674e-001 	
        96.639	  0.000e+000 	             	
        96.696	             	  1.675e-001 	
        96.703	  0.000e+000 	             	
        96.760	             	  1.676e-001 	
        96.767	  0.000e+000 	             	
        96.824	             	  1.676e-001 	
        96.831	  0.000e+000 	             	
        96.888	             	  1.676e-001 	
        96.895	  0.000e+000 	             	
        96.959	  0.000e+000 	             	
        96.984	             	  1.676e-001 	
        97.048	             	  1.676e-001 	
        97.055	  0.000e+000 	             	
        97.112	             	  1.676e-001 	
        97.119	  0.000e+000 	             	
        97.176	             	  1.676e-001 	
        97.183	  0.000e+000 	             	
        97.240	             	  1.676e-001 	
        97.247	  0.000e+000 	             	
        97.304	             	  1.676e-001 	
        97.311	  0.000e+000 	             	
        97.368	             	  1.676e-001 	
        97.375	  0.000e+000 	             	
        97.432	             	  1.676e-001 	
        97.439	  0.000e+000 	             	
        97.496	             	  1.676e-001 	
        97.503	  0.000e+000 	             	
        97.560	             	  1.677e-001 	
        97.567	  0.000e+000 	             	
        97.624	             	  1.678e-001 	
        97.631	  0.000e+000 	             	
        97.688	             	  1.678e-001 	
        97.695	  0.000e+000 	             	
        97.759	  0.000e+000 	             	
        97.784	             	  1.678e-001 	
        97.848	             	  1.678e-001 	
        97.855	  0.000e+000 	             	
        97.912	             	  1.679e-001 	
        97.919	  0.000e+000 	             	
        97.976	             	  1.679e-001 	
        97.983	  0.000e+000 	             	
        98.040	             	  1.679e-001 	
        98.047	  0.000e+000 	             	
        98.104	             	  1.679e-001 	
        98.111	  0.000e+000 	             	
        98.168	             	  1.679e-001 	
        98.175	  0.000e+000 	             	
        98.232	             	  1.679e-001 	
        98.239	  0.000e+000 	             	
        98.296	             	  1.679e-001 	
        98.303	  0.000e+000 	             	
        98.360	             	  1.679e-001 	
        98.367	  0.000e+000 	             	
        98.424	             	  1.679e-001 	
        98.431	  0.000e+000 	             	
        98.488	             	  1.680e-001 	
        98.495	  0.000e+000 	             	
        98.559	  0.000e+000 	             	
        98.584	             	  1.680e-001 	
        98.648	             	  1.680e-001 	
        98.655	  0.000e+000 	             	
        98.712	             	  1.681e-001 	
        98.719	  0.000e+000 	             	
        98.776	             	  1.681e-001 	
        98.783	  0.000e+000 	             	
        98.840	             	  1.681e-001 	
        98.847	  0.000e+000 	             	
        98.904	             	  1.681e-001 	
        98.911	  0.000e+000 	             	
        98.968	             	  1.681e-001 	
        98.975	  0.000e+000 	             	
        99.032	             	  1.681e-001 	
        99.039	  0.000e+000 	             	
        99.096	             	  1.681e-001 	
        99.103	  0.000e+000 	             	
        99.160	             	  1.680e-001 	
        99.167	  0.000e+000 	             	
        99.224	             	  1.680e-001 	
        99.231	  0.000e+000 	             	
        99.288	             	  1.680e-001 	
        99.295	  0.000e+000 	             	
        99.359	  0.000e+000 	             	
        99.384	             	  1.680e-001 	
        99.448	             	  1.680e-001 	
        99.455	  0.000e+000 	             	
        99.512	             	  1.680e-001 	
        99.519	  0.000e+000 	             	
        99.576	             	  1.680e-001 	
        99.583	  0.000e+000 	             	
        99.640	             	  1.680e-001 	
        99.647	  0.000e+000 	             	
        99.704	             	  1.680e-001 	
        99.711	  0.000e+000 	             	
        99.768	             	  1.679e-001 	
        99.775	  0.000e+000 	             	
        99.832	             	  1.679e-001 	
        99.839	  0.000e+000 	             	
        99.896	             	  1.679e-001 	
        99.903	  0.000e+000 	             	
        99.960	             	  1.678e-001 	
        99.967	  0.000e+000 	             	
       100.024	             	  1.679e-001 	
       100.031	  0.000e+000 	             	
       100.088	             	  1.679e-001 	
       100.095	  0.000e+000 	             	
       100.159	  0.000e+000 	             	
       100.184	             	  1.679e-001 	
       100.248	             	  1.679e-001 	
       100.255	  0.000e+000 	             	
       100.312	             	  1.678e-001 	
       100.319	  0.000e+000 	             	
       100.376	             	  1.678e-001 	
       100.383	  0.000e+000 	             	
       100.440	             	  1.678e-001 	
       100.447	  0.000e+000 	             	
       100.504	             	  1.678e-001 	
       100.511	  0.000e+000 	             	
       100.568	             	  1.678e-001 	
       100.575	  0.000e+000 	             	
       100.632	             	  1.677e-001 	
       100.639	  0.000e+000 	             	
       100.696	             	  1.677e-001 	
       100.703	  0.000e+000 	             	
       100.760	             	  1.678e-001 	
       100.767	  0.000e+000 	             	
       100.824	             	  1.679e-001 	
       100.831	  0.000e+000 	             	
       100.888	             	  1.679e-001 	
       100.895	  0.000e+000 	             	
       100.959	  0.000e+000 	             	
       100.984	             	  1.679e-001 	
       101.048	             	  1.680e-001 	
       101.055	  0.000e+000 	             	
       101.112	             	  1.681e-001 	
       101.119	  0.000e+000 	             	
       101.176	             	  1.682e-001 	
       101.183	  0.000e+000 	             	
       101.240	             	  1.682e-001 	
       101.247	  0.000e+000 	             	
       101.304	             	  1.683e-001 	
       101.311	  0.000e+000 	             	
       101.368	             	  1.683e-001 	
       101.375	  0.000e+000 	             	
       101.432	             	  1.683e-001 	
       101.439	  0.000e+000 	             	
       101.496	             	  1.683e-001 	
       101.503	  0.000e+000 	             	
       101.560	             	  1.683e-001 	
       101.567	  0.000e+000 	             	
       101.624	             	  1.684e-001 	
       101.631	  0.000e+000 	             	
       101.688	             	  1.683e-001 	
       101.695	  0.000e+000 	             	
       101.759	  0.000e+000 	             	
       101.784	             	  1.682e-001 	
       101.848	             	  1.681e-001 	
       101.855	  0.000e+000 	             	
       101.912	             	  1.681e-001 	
       101.919	  0.000e+000 	             	
       101.976	             	  1.681e-001 	
       101.983	  0.000e+000 	             	
       102.040	             	  1.681e-001 	
       102.047	  0.000e+000 	             	
       102.104	             	  1.682e-001 	
       102.111	  0.000e+000 	             	
       102.168	             	  1.682e-001 	
       102.175	  0.000e+000 	             	
       102.232	             	  1.682e-001 	
       102.239	  0.000e+000 	             	
       102.296	             	  1.682e-001 	
       102.303	  0.000e+000 	             	
       102.360	             	  1.682e-001 	
       102.367	  0.000e+000 	             	
       102.424	             	  1.682e-001 	
       102.431	  0.000e+000 	             	
       102.488	             	  1.682e-001 	
       102.495	  0.000e+000 	             	
       102.559	  0.000e+000 	             	
       102.584	             	  1.681e-001 	
       102.648	             	  1.681e-001 	
       102.655	  0.000e+000 	             	
       102.712	             	  1.681e-001 	
       102.719	  0.000e+000 	             	
       102.776	             	  1.681e-001 	
       102.783	  0.000e+000 	             	
       102.840	             	  1.680e-001 	
       102.847	  0.000e+000 	             	
       102.904	             	  1.680e-001 	
       102.911	  0.000e+000 	             	
       102.968	             	  1.680e-001 	
       102.975	  0.000e+000 	             	
       103.032	             	  1.679e-001 	
       103.039	  0.000e+000 	             	
       103.096	             	  1.679e-001 	
       103.103	  0.000e+000 	             	
       103.160	             	  1.680e-001 	
       103.167	  0.000e+000 	             	
       103.224	             	  1.680e-001 	
       103.231	  0.000e+000 	             	
       103.288	             	  1.680e-001 	
       103.295	  0.000e+000 	             	
       103.359	  0.000e+000 	             	
       103.384	             	  1.680e-001 	
       103.448	             	  1.679e-001 	
       103.455	  0.000e+000 	             	
       103.512	             	  1.679e-001 	
       103.519	  0.000e+000 	             	
       103.576	             	  1.678e-001 	
       103.583	  0.000e+000 	             	
       103.640	             	  1.678e-001 	
       103.647	  0.000e+000 	             	
       103.704	             	  1.678e-001 	
       103.711	  0.000e+000 	             	
       103.767	             	  1.679e-001 	
       103.775	  0.000e+000 	             	
       103.831	             	  1.679e-001 	
       103.839	  0.000e+000 	             	
       103.897	             	  1.680e-001 	
       103.904	  0.000e+000 	             	
       103.960	             	  1.679e-001 	
       103.968	  0.000e+000 	             	
       104.025	             	  1.679e-001 	
       104.032	  0.000e+000 	             	
       104.088	             	  1.679e-001 	
       104.096	  0.000e+000 	             	
       104.160	  0.000e+000 	             	
       104.185	             	  1.678e-001 	
       104.249	             	  1.678e-001 	
       104.256	  0.000e+000 	             	
       104.313	             	  1.678e-001 	
       104.320	  0.000e+000 	             	
       104.377	             	  1.678e-001 	
       104.384	  0.000e+000 	             	
       104.441	             	  1.677e-001 	
       104.448	  0.000e+000 	             	
       104.505	             	  1.677e-001 	
       104.512	  0.000e+000 	             	
       104.569	             	  1.676e-001 	
       104.576	  0.000e+000 	             	
       104.633	             	  1.675e-001 	
       104.640	  0.000e+000 	             	
       104.696	             	  1.675e-001 	
       104.704	  0.000e+000 	             	
       104.760	             	  1.675e-001 	
       104.768	  0.000e+000 	             	
       104.824	             	  1.676e-001 	
       104.832	  0.000e+000 	             	
       104.888	             	  1.676e-001 	
       104.896	  0.000e+000 	             	
       104.960	  0.000e+000 	             	
       104.985	             	  1.676e-001 	
       105.024	  0.000e+000 	             	
       105.048	             	  1.676e-001 	
       105.112	             	  1.677e-001 	
       105.120	  0.000e+000 	             	
       105.177	             	  1.677e-001 	
       105.184	  0.000e+000 	             	
       105.241	             	  1.677e-001 	
       105.248	  0.000e+000 	             	
       105.304	             	  1.677e-001 	
       105.312	  0.000e+000 	             	
       105.368	             	  1.678e-001 	
       105.376	  0.000e+000 	             	
       105.432	             	  1.678e-001 	
       105.440	  0.000e+000 	             	
       105.496	             	  1.678e-001 	
       105.504	  0.000e+000 	             	
       105.560	             	  1.678e-001 	
       105.568	  0.000e+000 	             	
       105.624	             	  1.678e-001 	
       105.632	  0.000e+000 	             	
       105.688	             	  1.678e-001 	
       105.696	  0.000e+000 	             	
       105.760	  0.000e+000 	             	
       105.785	             	  1.678e-001 	
       105.824	  0.000e+000 	             	
       105.848	             	  1.679e-001 	
       105.912	             	  1.679e-001 	
       105.920	  0.000e+000 	             	
       105.976	             	  1.679e-001 	
       105.984	  0.000e+000 	             	
       106.040	             	  1.679e-001 	
       106.048	  0.000e+000 	             	
       106.104	             	  1.679e-001 	
       106.112	  0.000e+000 	             	
       106.168	             	  1.678e-001 	
       106.176	  0.000e+000 	             	
       106.232	             	  1.678e-001 	
       106.240	  0.000e+000 	             	
       106.296	             	  1.677e-001 	
       106.304	  0.000e+000 	             	
       106.360	             	  1.676e-001 	
       106.368	  0.000e+000 	             	
       106.424	             	  1.675e-001 	
       106.432	  0.000e+000 	             	
       106.488	             	  1.675e-001 	
       106.496	  0.000e+000 	             	
       106.560	  0.000e+000 	             	
       106.584	             	  1.675e-001 	
       106.624	  0.000e+000 	             	
       106.648	             	  1.675e-001 	
       106.712	             	  1.675e-001 	
       106.720	  0.000e+000 	             	
       106.776	             	  1.676e-001 	
       106.784	  0.000e+000 	             	
       106.840	             	  1.676e-001 	
       106.848	  0.000e+000 	             	
       106.904	             	  1.676e-001 	
       106.912	  0.000e+000 	             	
       106.968	             	  1.676e-001 	
       106.976	  0.000e+000 	             	
       107.032	             	  1.676e-001 	
       107.040	  0.000e+000 	             	
       107.096	             	  1.676e-001 	
       107.104	  0.000e+000 	             	
       107.160	             	  1.675e-001 	
       107.168	  0.000e+000 	             	
       107.224	             	  1.675e-001 	
       107.232	  0.000e+000 	             	
       107.288	             	  1.675e-001 	
       107.296	  0.000e+000 	             	
       107.360	  0.000e+000 	             	
       107.384	             	  1.675e-001 	
       107.424	  0.000e+000 	             	
       107.448	             	  1.675e-001 	
       107.512	             	  1.675e-001 	
       107.520	  0.000e+000 	             	
       107.576	             	  1.675e-001 	
       107.584	  0.000e+000 	             	
       107.640	             	  1.676e-001 	
       107.648	  0.000e+000 	             	
       107.704	             	  1.676e-001 	
       107.712	  0.000e+000 	             	
       107.768	             	  1.676e-001 	
       107.776	  0.000e+000 	             	
       107.832	             	  1.677e-001 	
       107.840	  0.000e+000 	             	
       107.896	             	  1.677e-001 	
       107.904	  0.000e+000 	             	
       107.960	             	  1.676e-001 	
       107.967	  0.000e+000 	             	
       108.024	             	  1.676e-001 	
       108.032	  0.000e+000 	             	
       108.088	             	  1.677e-001 	
       108.096	  0.000e+000 	             	
       108.160	  0.000e+000 	             	
       108.184	             	  1.676e-001 	
       108.224	  0.000e+000 	             	
       108.248	             	  1.676e-001 	
       108.312	             	  1.676e-001 	
       108.320	  0.000e+000 	             	
       108.376	             	  1.677e-001 	
       108.384	  0.000e+000 	             	
       108.440	             	  1.678e-001 	
       108.448	  0.000e+000 	             	
       108.504	             	  1.679e-001 	
       108.512	  0.000e+000 	             	
       108.568	             	  1.679e-001 	
       108.576	  0.000e+000 	             	
       108.632	             	  1.679e-001 	
       108.640	  0.000e+000 	             	
       108.696	             	  1.680e-001 	
       108.703	  0.000e+000 	             	
       108.760	             	  1.680e-001 	
       108.768	  0.000e+000 	             	
       108.824	             	  1.680e-001 	
       108.832	  0.000e+000 	             	
       108.888	             	  1.679e-001 	
       108.895	  0.000e+000 	             	
       108.960	  5.450e-003 	             	
       108.984	             	  1.679e-001 	
       109.024	  5.450e-003 	             	
       109.048	             	  1.679e-001 	
       109.112	             	  1.678e-001 	
       109.120	  5.470e-003 	             	
       109.176	             	  1.678e-001 	
       109.184	  5.470e-003 	             	
       109.240	             	  1.678e-001 	
       109.247	  5.460e-003 	             	
       109.304	             	  1.679e-001 	
       109.312	  5.460e-003 	             	
       109.368	             	  1.680e-001 	
       109.375	  5.450e-003 	             	
       109.432	             	  1.679e-001 	
       109.439	  5.460e-003 	             	
       109.496	             	  1.679e-001 	
       109.503	  5.440e-003 	             	
       109.560	             	  1.678e-001 	
       109.567	  5.440e-003 	             	
       109.624	             	  1.678e-001 	
       109.632	  5.450e-003 	             	
       109.688	             	  1.678e-001 	
       109.695	  5.450e-003 	             	
       109.752	             	  1.678e-001 	
       109.759	  5.450e-003 	             	
       109.823	  5.460e-003 	             	
       109.848	             	  1.677e-001 	
       109.912	             	  1.677e-001 	
       109.919	  5.470e-003 	             	
       109.976	             	  1.677e-001 	
       109.983	  5.440e-003 	             	
       110.041	             	  1.677e-001 	
       110.047	  5.430e-003 	             	
       110.104	             	  1.676e-001 	
       110.111	  5.450e-003 	             	
       110.168	             	  1.676e-001 	
       110.175	  5.470e-003 	             	
       110.232	             	  1.676e-001 	
       110.239	  5.470e-003 	             	
       110.296	             	  1.676e-001 	
       110.303	  5.480e-003 	             	
       110.360	             	  1.676e-001 	
       110.367	  5.480e-003 	             	
       110.424	             	  1.676e-001 	
       110.431	  5.430e-003 	             	
       110.488	             	  1.677e-001 	
       110.495	  5.450e-003 	             	
       110.552	             	  1.678e-001 	
       110.559	  5.480e-003 	             	
       110.623	  5.460e-003 	             	
       110.648	             	  1.678e-001 	
       110.712	             	  1.678e-001 	
       110.719	  5.460e-003 	             	
       110.776	             	  1.678e-001 	
       110.783	  5.450e-003 	             	
       110.840	             	  1.678e-001 	
       110.847	  5.430e-003 	             	
       110.904	             	  1.679e-001 	
       110.911	  5.400e-003 	             	
       110.968	             	  1.679e-001 	
       110.975	  5.480e-003 	             	
       111.032	             	  1.679e-001 	
       111.039	  5.480e-003 	             	
       111.096	             	  1.679e-001 	
       111.103	  5.460e-003 	             	
       111.160	             	  1.679e-001 	
       111.167	  5.410e-003 	             	
       111.224	             	  1.679e-001 	
       111.231	  5.460e-003 	             	
       111.288	             	  1.679e-001 	
       111.295	  5.420e-003 	             	
       111.352	             	  1.679e-001 	
       111.359	  5.430e-003 	             	
       111.423	  5.420e-003 	             	
       111.448	             	  1.678e-001 	
       111.512	             	  1.678e-001 	
       111.519	  5.440e-003 	             	
       111.576	             	  1.678e-001 	
       111.583	  5.410e-003 	             	
       111.640	             	  1.678e-001 	
       111.647	  5.480e-003 	             	
       111.704	             	  1.678e-001 	
       111.711	  5.450e-003 	             	
       111.768	             	  1.678e-001 	
       111.775	  5.420e-003 	             	
       111.832	             	  1.677e-001 	
       111.839	  5.460e-003 	             	
       111.896	             	  1.678e-001 	
       111.903	  5.440e-003 	             	
       111.960	             	  1.677e-001 	
       111.967	  5.460e-003 	             	
       112.024	             	  1.677e-001 	
       112.031	  5.490e-003 	             	
       112.088	             	  1.676e-001 	
       112.095	  5.490e-003 	             	
       112.152	             	  1.677e-001 	
       112.159	  5.480e-003 	             	
       112.223	  5.420e-003 	             	
       112.248	             	  1.678e-001 	
       112.312	             	  1.679e-001 	
       112.319	  5.370e-003 	             	
       112.376	             	  1.680e-001 	
       112.383	  5.330e-003 	             	
       112.440	             	  1.680e-001 	
       112.447	  5.330e-003 	             	
       112.504	             	  1.680e-001 	
       112.511	  5.140e-003 	             	
       112.568	             	  1.679e-001 	
       112.575	  2.540e-003 	             	
       112.632	             	  1.680e-001 	
       112.639	  7.000e-004 	             	
       112.696	             	  1.681e-001 	
       112.703	  2.400e-004 	             	
       112.760	             	  1.682e-001 	
       112.767	  4.000e-005 	             	
       112.824	             	  1.684e-001 	
       112.831	  1.120e-003 	             	
       112.888	             	  1.687e-001 	
       112.895	  3.990e-003 	             	
       112.952	             	  1.689e-001 	
       112.959	  5.480e-003 	             	
       113.023	  7.440e-003 	             	
       113.048	             	  1.692e-001 	
       113.112	             	  1.694e-001 	
       113.119	  1.071e-002 	             	
       113.176	             	  1.694e-001 	
       113.183	  1.533e-002 	             	
       113.240	             	  1.693e-001 	
       113.247	  1.992e-002 	             	
       113.304	             	  1.690e-001 	
       113.311	  2.341e-002 	             	
       113.368	             	  1.684e-001 	
       113.375	  2.580e-002 	             	
       113.432	             	  1.676e-001 	
       113.439	  2.985e-002 	             	
       113.496	             	  1.665e-001 	
       113.560	             	  1.651e-001 	
       113.624	             	  1.634e-001 	
       113.688	             	  1.614e-001 	
       113.695	  5.660e-002 	             	
       113.752	             	  1.591e-001 	
       113.759	  5.680e-002 	             	
       113.823	  5.800e-002 	             	
       113.848	             	  1.564e-001 	
       113.912	             	  1.536e-001 	
       113.919	  5.900e-002 	             	
       113.976	             	  1.508e-001 	
       113.983	  6.450e-002 	             	
       114.040	             	  1.481e-001 	
       114.047	  7.140e-002 	             	
       114.104	             	  1.455e-001 	
       114.111	  7.580e-002 	             	
       114.168	             	  1.428e-001 	
       114.175	  8.040e-002 	             	
       114.232	             	  1.400e-001 	
       114.239	  8.460e-002 	             	
       114.296	             	  1.373e-001 	
       114.303	  8.840e-002 	             	
       114.360	             	  1.346e-001 	
       114.367	  8.850e-002 	             	
       114.424	             	  1.319e-001 	
       114.431	  8.900e-002 	             	
       114.488	             	  1.291e-001 	
       114.495	  8.850e-002 	             	
       114.552	             	  1.264e-001 	
       114.559	  8.810e-002 	             	
       114.623	  8.810e-002 	             	
       114.648	             	  1.239e-001 	
       114.712	             	  1.215e-001 	
       114.719	  8.770e-002 	             	
       114.776	             	  1.194e-001 	
       114.783	  8.820e-002 	             	
       114.840	             	  1.175e-001 	
       114.847	  8.860e-002 	             	
       114.904	             	  1.158e-001 	
       114.911	  8.830e-002 	             	
       114.968	             	  1.143e-001 	
       114.975	  8.830e-002 	             	
       115.032	             	  1.130e-001 	
       115.039	  8.870e-002 	             	
       115.096	             	  1.118e-001 	
       115.103	  8.830e-002 	             	
       115.160	             	  1.107e-001 	
       115.167	  8.830e-002 	             	
       115.224	             	  1.099e-001 	
       115.231	  8.790e-002 	             	
       115.288	             	  1.093e-001 	
       115.295	  8.820e-002 	             	
       115.352	             	  1.086e-001 	
       115.359	  8.790e-002 	             	
       115.423	  8.840e-002 	             	
       115.448	             	  1.081e-001 	
       115.512	             	  1.075e-001 	
       115.519	  8.900e-002 	             	
       115.576	             	  1.070e-001 	
       115.583	  8.930e-002 	             	
       115.640	             	  1.065e-001 	
       115.647	  8.920e-002 	             	
       115.704	             	  1.061e-001 	
       115.711	  8.990e-002 	             	
       115.768	             	  1.058e-001 	
       115.775	  9.330e-002 	             	
       115.832	             	  1.055e-001 	
       115.839	  9.780e-002 	             	
       115.896	             	  1.051e-001 	
       115.903	  9.840e-002 	             	
       115.960	             	  1.048e-001 	
       115.967	  1.002e-001 	             	
       116.024	             	  1.044e-001 	
       116.031	  1.019e-001 	             	
       116.088	             	  1.041e-001 	
       116.095	  9.910e-002 	             	
       116.152	             	  1.039e-001 	
       116.159	  9.260e-002 	             	
       116.223	  9.270e-002 	             	
       116.248	             	  1.036e-001 	
       116.312	             	  1.034e-001 	
       116.319	  9.170e-002 	             	
       116.376	             	  1.032e-001 	
       116.383	  9.970e-002 	             	
       116.440	             	  1.030e-001 	
       116.447	  1.011e-001 	             	
       116.504	             	  1.029e-001 	
       116.511	  7.840e-002 	             	
       116.568	             	  1.027e-001 	
       116.575	  7.390e-002 	             	
       116.632	             	  1.025e-001 	
       116.639	  6.840e-002 	             	
       116.696	             	  1.024e-001 	
       116.760	             	  1.022e-001 	
       116.824	             	  1.021e-001 	
       116.888	             	  1.020e-001 	
       116.895	  1.413e-002 	             	
       116.952	             	  1.019e-001 	
       117.048	             	  1.018e-001 	
       117.112	             	  1.016e-001 	
       117.176	             	  1.014e-001 	
       117.183	  4.950e-002 	             	
       117.240	             	  1.013e-001 	
       117.247	  6.550e-002 	             	
       117.304	             	  1.012e-001 	
       117.311	  5.590e-002 	             	
       117.368	             	  1.010e-001 	
       117.375	  5.650e-002 	             	
       117.432	             	  1.009e-001 	
       117.439	  6.960e-002 	             	
       117.496	             	  1.008e-001 	
       117.503	  9.380e-002 	             	
       117.560	             	  1.008e-001 	
       117.567	  9.450e-002 	             	
       117.624	             	  1.007e-001 	
       117.631	  7.770e-002 	             	
       117.688	             	  1.006e-001 	
       117.695	  8.960e-002 	             	
       117.752	             	  1.005e-001 	
       117.759	  9.500e-002 	             	
       117.823	  9.110e-002 	             	
       117.848	             	  1.004e-001 	
       117.912	             	  1.004e-001 	
       117.919	  9.100e-002 	             	
       117.976	             	  1.003e-001 	
       117.983	  9.270e-002 	             	
       118.040	             	  1.003e-001 	
       118.047	  9.100e-002 	             	
       118.104	             	  1.003e-001 	
       118.111	  9.020e-002 	             	
       118.168	             	  1.004e-001 	
       118.175	  9.040e-002 	             	
       118.232	             	  1.004e-001 	
       118.239	  9.090e-002 	             	
       118.296	             	  1.004e-001 	
       118.303	  9.060e-002 	             	
       118.360	             	  1.003e-001 	
       118.367	  9.040e-002 	             	
       118.424	             	  1.003e-001 	
       118.431	  9.000e-002 	             	
       118.488	             	  1.002e-001 	
       118.495	  8.980e-002 	             	
       118.552	             	  1.001e-001 	
       118.559	  9.030e-002 	             	
       118.623	  9.020e-002 	             	
       118.648	             	  1.001e-001 	
       118.687	  8.990e-002 	             	
       118.712	             	  1.001e-001 	
       118.776	             	  1.001e-001 	
       118.783	  9.040e-002 	             	
       118.840	             	  1.001e-001 	
       118.847	  8.970e-002 	             	
       118.904	             	  1.000e-001 	
       118.911	  9.020e-002 	             	
       118.968	             	  1.000e-001 	
       118.975	  8.950e-002 	             	
       119.032	             	  9.990e-002 	
       119.039	  9.030e-002 	             	
       119.096	             	  9.980e-002 	
       119.103	  8.920e-002 	             	
       119.160	             	  9.970e-002 	
       119.167	  9.030e-002 	             	
       119.224	             	  9.970e-002 	
       119.231	  9.010e-002 	             	
       119.288	             	  9.960e-002 	
       119.295	  8.980e-002 	             	
       119.352	             	  9.960e-002 	
       119.359	  8.960e-002 	             	
       119.423	  8.960e-002 	             	
       119.448	             	  9.970e-002 	
       119.487	  9.050e-002 	             	
       119.512	             	  9.970e-002 	
       119.576	             	  9.980e-002 	
       119.583	  8.990e-002 	             	
       119.640	             	  9.990e-002 	
       119.647	  9.010e-002 	             	
       119.704	             	  9.990e-002 	
       119.711	  8.960e-002 	             	
       119.768	             	  9.980e-002 	
       119.775	  8.970e-002 	             	
       119.832	             	  9.980e-002 	
       119.839	  8.990e-002 	             	
       119.896	             	  9.980e-002 	
       119.903	  9.030e-002 	             	
       119.960	             	  9.980e-002 	
       119.967	  9.040e-002 	             	
       120.024	             	  9.980e-002 	
       120.031	  9.020e-002 	             	
       120.088	             	  9.980e-002 	
       120.095	  9.000e-002 	             	
       120.152	             	  9.980e-002 	
       120.159	  8.980e-002 	             	
       120.223	  9.000e-002 	             	
       120.248	             	  9.970e-002 	
       120.287	  9.020e-002 	             	
       120.312	             	  9.960e-002 	
       120.376	             	  9.960e-002 	
       120.383	  9.030e-002 	             	
       120.440	             	  9.960e-002 	
       120.447	  8.980e-002 	             	
       120.504	             	  9.960e-002 	
       120.511	  9.030e-002 	             	
       120.568	             	  9.950e-002 	
       120.575	  8.970e-002 	             	
       120.632	             	  9.960e-002 	
       120.639	  9.030e-002 	             	
       120.696	             	  9.960e-002 	
       120.703	  9.070e-002 	             	
       120.760	             	  9.960e-002 	
       120.767	  9.020e-002 	             	
       120.824	             	  9.960e-002 	
       120.831	  8.920e-002 	             	
       120.888	             	  9.960e-002 	
       120.895	  8.950e-002 	             	
       120.952	             	  9.960e-002 	
       120.959	  9.050e-002 	             	
       121.023	  9.020e-002 	             	
       121.048	             	  9.970e-002 	
       121.087	  9.080e-002 	             	
       121.112	             	  9.980e-002 	
       121.176	             	  9.980e-002 	
       121.183	  8.990e-002 	             	
       121.239	             	  9.970e-002 	
       121.247	  8.950e-002 	             	
       121.304	             	  9.970e-002 	
       121.311	  9.060e-002 	             	
       121.369	             	  9.970e-002 	
       121.376	  9.040e-002 	             	
       121.433	             	  9.960e-002 	
       121.440	  9.060e-002 	             	
       121.497	             	  9.950e-002 	
       121.504	  9.060e-002 	             	
       121.560	             	  9.950e-002 	
       121.568	  9.100e-002 	             	
       121.625	             	  9.950e-002 	
       121.632	  9.090e-002 	             	
       121.688	             	  9.950e-002 	
       121.696	  9.160e-002 	             	
       121.753	             	  9.940e-002 	
       121.760	  9.420e-002 	             	
       121.817	             	  9.930e-002 	
       121.824	  9.610e-002 	             	
       121.888	  9.580e-002 	             	
       121.912	             	  9.930e-002 	
       121.977	             	  9.910e-002 	
       121.984	  9.750e-002 	             	
       122.041	             	  9.880e-002 	
       122.048	  9.930e-002 	             	
       122.104	             	  9.850e-002 	
       122.112	  1.030e-001 	             	
       122.169	             	  9.810e-002 	
       122.176	  1.065e-001 	             	
       122.232	             	  9.760e-002 	
       122.240	  1.076e-001 	             	
       122.296	             	  9.690e-002 	
       122.304	  1.078e-001 	             	
       122.360	             	  9.610e-002 	
       122.368	  1.088e-001 	             	
       122.424	             	  9.520e-002 	
       122.432	  1.074e-001 	             	
       122.488	             	  9.430e-002 	
       122.496	  1.084e-001 	             	
       122.552	             	  9.340e-002 	
       122.560	  1.073e-001 	             	
       122.616	             	  9.260e-002 	
       122.624	  1.077e-001 	             	
       122.688	  1.084e-001 	             	
       122.712	             	  9.170e-002 	
       122.776	             	  9.080e-002 	
       122.784	  1.077e-001 	             	
       122.841	             	  9.010e-002 	
       122.848	  1.076e-001 	             	
       122.905	             	  8.950e-002 	
       122.912	  1.083e-001 	             	
       122.968	             	  8.910e-002 	
       122.976	  1.072e-001 	             	
       123.032	             	  8.880e-002 	
       123.040	  1.075e-001 	             	
       123.096	             	  8.850e-002 	
       123.104	  1.074e-001 	             	
       123.160	             	  8.830e-002 	
       123.168	  1.080e-001 	             	
       123.224	             	  8.810e-002 	
       123.232	  1.078e-001 	             	
       123.288	             	  8.790e-002 	
       123.296	  1.068e-001 	             	
       123.352	             	  8.770e-002 	
       123.360	  1.078e-001 	             	
       123.416	             	  8.740e-002 	
       123.424	  1.076e-001 	             	
       123.488	  1.074e-001 	             	
       123.512	             	  8.720e-002 	
       123.576	             	  8.710e-002 	
       123.584	  1.074e-001 	             	
       123.640	             	  8.690e-002 	
       123.648	  1.084e-001 	             	
       123.704	             	  8.690e-002 	
       123.712	  1.080e-001 	             	
       123.768	             	  8.680e-002 	
       123.776	  1.079e-001 	             	
       123.832	             	  8.680e-002 	
       123.840	  1.082e-001 	             	
       123.896	             	  8.670e-002 	
       123.904	  1.079e-001 	             	
       123.960	             	  8.660e-002 	
       123.968	  1.083e-001 	             	
       124.024	             	  8.660e-002 	
       124.032	  1.081e-001 	             	
       124.088	             	  8.660e-002 	
       124.096	  1.073e-001 	             	
       124.152	             	  8.660e-002 	
       124.160	  1.080e-001 	             	
       124.216	             	  8.650e-002 	
       124.224	  1.072e-001 	             	
       124.288	  1.077e-001 	             	
       124.312	             	  8.630e-002 	
       124.376	             	  8.620e-002 	
       124.384	  1.071e-001 	             	
       124.440	             	  8.620e-002 	
       124.448	  1.069e-001 	             	
       124.504	             	  8.620e-002 	
       124.512	  1.086e-001 	             	
       124.568	             	  8.610e-002 	
       124.576	  1.076e-001 	             	
       124.632	             	  8.610e-002 	
       124.640	  1.076e-001 	             	
       124.696	             	  8.620e-002 	
       124.704	  1.071e-001 	             	
       124.760	             	  8.620e-002 	
       124.767	  1.077e-001 	             	
       124.824	             	  8.620e-002 	
       124.832	  1.083e-001 	             	
       124.888	             	  8.620e-002 	
       124.896	  1.080e-001 	             	
       124.952	             	  8.610e-002 	
       124.960	  1.080e-001 	             	
       125.016	             	  8.610e-002 	
       125.024	  1.080e-001 	             	
       125.088	  1.082e-001 	             	
       125.112	             	  8.600e-002 	
       125.176	             	  8.600e-002 	
       125.184	  1.070e-001 	             	
       125.240	             	  8.590e-002 	
       125.248	  1.069e-001 	             	
       125.304	             	  8.590e-002 	
       125.312	  1.076e-001 	             	
       125.368	             	  8.590e-002 	
       125.376	  1.081e-001 	             	
       125.432	             	  8.580e-002 	
       125.440	  1.094e-001 	             	
       125.496	             	  8.570e-002 	
       125.504	  1.096e-001 	             	
       125.560	             	  8.570e-002 	
       125.568	  1.102e-001 	             	
       125.624	             	  8.560e-002 	
       125.632	  1.170e-001 	             	
       125.688	             	  8.540e-002 	
       125.696	  1.254e-001 	             	
       125.752	             	  8.510e-002 	
       125.760	  1.326e-001 	             	
       125.816	             	  8.460e-002 	
       125.824	  1.327e-001 	             	
       125.888	  1.335e-001 	             	
       125.912	             	  8.380e-002 	
       125.976	             	  8.270e-002 	
       125.983	  1.329e-001 	             	
       126.040	             	  8.130e-002 	
       126.047	  1.324e-001 	             	
       126.104	             	  7.990e-002 	
       126.112	  1.325e-001 	             	
       126.168	             	  7.850e-002 	
       126.175	  1.316e-001 	             	
       126.232	             	  7.710e-002 	
       126.239	  1.322e-001 	             	
       126.296	             	  7.580e-002 	
       126.303	  1.332e-001 	             	
       126.360	             	  7.460e-002 	
       126.367	  1.388e-001 	             	
       126.424	             	  7.340e-002 	
       126.431	  1.404e-001 	             	
       126.488	             	  7.240e-002 	
       126.495	  1.398e-001 	             	
       126.552	             	  7.140e-002 	
       126.560	  1.397e-001 	             	
       126.616	             	  7.030e-002 	
       126.623	  1.396e-001 	             	
       126.688	  1.418e-001 	             	
       126.712	             	  6.930e-002 	
       126.776	             	  6.840e-002 	
       126.783	  1.419e-001 	             	
       126.840	             	  6.750e-002 	
       126.847	  1.401e-001 	             	
       126.904	             	  6.670e-002 	
       126.911	  1.410e-001 	             	
       126.968	             	  6.610e-002 	
       126.975	  1.404e-001 	             	
       127.032	             	  6.540e-002 	
       127.039	  1.397e-001 	             	
       127.096	             	  6.480e-002 	
       127.103	  1.401e-001 	             	
       127.160	             	  6.430e-002 	
       127.168	  1.411e-001 	             	
       127.224	             	  6.390e-002 	
       127.231	  1.404e-001 	             	
       127.288	             	  6.350e-002 	
       127.296	  1.406e-001 	             	
       127.352	             	  6.310e-002 	
       127.359	  1.394e-001 	             	
       127.416	             	  6.280e-002 	
       127.423	  1.410e-001 	             	
       127.488	  1.405e-001 	             	
       127.512	             	  6.260e-002 	
       127.576	             	  6.230e-002 	
       127.583	  1.402e-001 	             	
       127.640	             	  6.200e-002 	
       127.647	  1.403e-001 	             	
       127.704	             	  6.170e-002 	
       127.711	  1.415e-001 	             	
       127.768	             	  6.140e-002 	
       127.775	  1.407e-001 	             	
       127.832	             	  6.120e-002 	
       127.839	  1.416e-001 	             	
       127.896	             	  6.110e-002 	
       127.903	  1.418e-001 	             	
       127.960	             	  6.090e-002 	
       127.967	  1.402e-001 	             	
       128.024	             	  6.080e-002 	
       128.031	  1.408e-001 	             	
       128.088	             	  6.070e-002 	
       128.095	  1.409e-001 	             	
       128.152	             	  6.060e-002 	
       128.159	  1.405e-001 	             	
       128.216	             	  6.050e-002 	
       128.223	  1.417e-001 	             	
       128.287	  1.410e-001 	             	
       128.312	             	  6.040e-002 	
       128.376	             	  6.040e-002 	
       128.383	  1.408e-001 	             	
       128.440	             	  6.030e-002 	
       128.447	  1.407e-001 	             	
       128.504	             	  6.020e-002 	
       128.512	  1.401e-001 	             	
       128.568	             	  6.010e-002 	
       128.575	  1.409e-001 	             	
       128.632	             	  6.010e-002 	
       128.639	  1.411e-001 	             	
       128.696	             	  6.000e-002 	
       128.703	  1.401e-001 	             	
       128.760	             	  5.990e-002 	
       128.767	  1.406e-001 	             	
       128.824	             	  5.980e-002 	
       128.831	  1.397e-001 	             	
       128.888	             	  5.980e-002 	
       128.895	  1.412e-001 	             	
       128.952	             	  5.970e-002 	
       128.959	  1.407e-001 	             	
       129.016	             	  5.970e-002 	
       129.023	  1.401e-001 	             	
       129.087	  1.413e-001 	             	
       129.112	             	  5.960e-002 	
       129.176	             	  5.950e-002 	
       129.183	  1.401e-001 	             	
       129.240	             	  5.950e-002 	
       129.247	  1.401e-001 	             	
       129.304	             	  5.950e-002 	
       129.311	  1.399e-001 	             	
       129.368	             	  5.950e-002 	
       129.375	  1.404e-001 	             	
       129.432	             	  5.950e-002 	
       129.439	  1.400e-001 	             	
       129.496	             	  5.950e-002 	
       129.503	  1.409e-001 	             	
       129.560	             	  5.940e-002 	
       129.567	  1.412e-001 	             	
       129.624	             	  5.940e-002 	
       129.631	  1.411e-001 	             	
       129.688	             	  5.950e-002 	
       129.695	  1.404e-001 	             	
       129.752	             	  5.940e-002 	
       129.759	  1.405e-001 	             	
       129.816	             	  5.930e-002 	
       129.823	  1.400e-001 	             	
       129.890	  1.407e-001 	             	
       129.912	             	  5.930e-002 	
       129.976	             	  5.940e-002 	
       129.983	  1.401e-001 	             	
       130.040	             	  5.940e-002 	
       130.047	  1.399e-001 	             	
       130.104	             	  5.940e-002 	
       130.111	  1.396e-001 	             	
       130.168	             	  5.940e-002 	
       130.175	  1.406e-001 	             	
       130.232	             	  5.940e-002 	
       130.239	  1.405e-001 	             	
       130.296	             	  5.940e-002 	
       130.303	  1.405e-001 	             	
       130.360	             	  5.930e-002 	
       130.367	  1.405e-001 	             	
       130.429	             	  5.930e-002 	
       130.431	  1.410e-001 	             	
       130.488	             	  5.930e-002 	
       130.495	  1.408e-001 	             	
       130.552	             	  5.930e-002 	
       130.559	  1.395e-001 	             	
       130.616	             	  5.920e-002 	
       130.623	  1.400e-001 	             	
       130.687	  1.407e-001 	             	
       130.712	             	  5.920e-002 	
       130.776	             	  5.910e-002 	
       130.783	  1.411e-001 	             	
       130.840	             	  5.910e-002 	
       130.847	  1.410e-001 	             	
       130.904	             	  5.910e-002 	
       130.911	  1.413e-001 	             	
       130.968	             	  5.910e-002 	
       130.975	  1.411e-001 	             	
       131.032	             	  5.910e-002 	
       131.039	  1.410e-001 	             	
       131.096	             	  5.910e-002 	
       131.103	  1.414e-001 	             	
       131.160	             	  5.910e-002 	
       131.167	  1.407e-001 	             	
       131.224	             	  5.920e-002 	
       131.231	  1.412e-001 	             	
       131.288	             	  5.920e-002 	
       131.295	  1.411e-001 	             	
       131.352	             	  5.920e-002 	
       131.359	  1.399e-001 	             	
       131.416	             	  5.920e-002 	
       131.423	  1.403e-001 	             	
       131.487	  1.405e-001 	             	
       131.512	             	  5.920e-002 	
       131.576	             	  5.920e-002 	
       131.583	  1.400e-001 	             	
       131.640	             	  5.920e-002 	
       131.647	  1.424e-001 	             	
       131.704	             	  5.920e-002 	
       131.711	  1.408e-001 	             	
       131.768	             	  5.920e-002 	
       131.775	  1.401e-001 	             	
       131.832	             	  5.910e-002 	
       131.839	  1.408e-001 	             	
       131.896	             	  5.910e-002 	
       131.903	  1.400e-001 	             	
       131.960	             	  5.900e-002 	
       131.967	  1.407e-001 	             	
       132.024	             	  5.900e-002 	
       132.031	  1.412e-001 	             	
       132.088	             	  5.900e-002 	
       132.095	  1.406e-001 	             	
       132.152	             	  5.910e-002 	
       132.159	  1.418e-001 	             	
       132.216	             	  5.910e-002 	
       132.223	  1.408e-001 	             	
       132.287	  1.416e-001 	             	
       132.312	             	  5.910e-002 	
       132.351	  1.394e-001 	             	
       132.376	             	  5.910e-002 	
       132.440	             	  5.910e-002 	
       132.447	  1.403e-001 	             	
       132.504	             	  5.910e-002 	
       132.511	  1.409e-001 	             	
       132.568	             	  5.910e-002 	
       132.575	  1.409e-001 	             	
       132.632	             	  5.910e-002 	
       132.639	  1.399e-001 	             	
       132.696	             	  5.910e-002 	
       132.703	  1.408e-001 	             	
       132.760	             	  5.920e-002 	
       132.767	  1.412e-001 	             	
       132.824	             	  5.920e-002 	
       132.831	  1.427e-001 	             	
       132.888	             	  5.910e-002 	
       132.895	  1.402e-001 	             	
       132.952	             	  5.910e-002 	
       132.959	  1.398e-001 	             	
       133.016	             	  5.910e-002 	
       133.023	  1.402e-001 	             	
       133.087	  1.404e-001 	             	
       133.112	             	  5.910e-002 	
       133.151	  1.412e-001 	             	
       133.176	             	  5.910e-002 	
       133.240	             	  5.910e-002 	
       133.247	  1.405e-001 	             	
       133.304	             	  5.910e-002 	
       133.311	  1.400e-001 	             	
       133.368	             	  5.910e-002 	
       133.375	  1.400e-001 	             	
       133.432	             	  5.900e-002 	
       133.439	  1.412e-001 	             	
       133.496	             	  5.910e-002 	
       133.503	  1.401e-001 	             	
       133.560	             	  5.900e-002 	
       133.567	  1.404e-001 	             	
       133.624	             	  5.900e-002 	
       133.631	  1.417e-001 	             	
       133.688	             	  5.900e-002 	
       133.695	  1.396e-001 	             	
       133.752	             	  5.900e-002 	
       133.759	  1.406e-001 	             	
       133.816	             	  5.900e-002 	
       133.823	  1.405e-001 	             	
       133.887	  1.408e-001 	             	
       133.912	             	  5.900e-002 	
       133.951	  1.406e-001 	             	
       133.976	             	  5.890e-002 	
       134.040	             	  5.890e-002 	
       134.047	  1.410e-001 	             	
       134.104	             	  5.890e-002 	
       134.111	  1.403e-001 	             	
       134.168	             	  5.890e-002 	
       134.175	  1.414e-001 	             	
       134.232	             	  5.890e-002 	
       134.239	  1.397e-001 	             	
       134.296	             	  5.880e-002 	
       134.303	  1.405e-001 	             	
       134.360	             	  5.890e-002 	
       134.367	  1.411e-001 	             	
       134.424	             	  5.890e-002 	
       134.431	  1.404e-001 	             	
       134.488	             	  5.890e-002 	
       134.495	  1.406e-001 	             	
       134.552	             	  5.890e-002 	
       134.559	  1.398e-001 	             	
       134.616	             	  5.890e-002 	
       134.623	  1.413e-001 	             	
       134.687	  1.409e-001 	             	
       134.689	             	  5.890e-002 	
       134.751	  1.404e-001 	             	
       134.776	             	  5.880e-002 	
       134.840	             	  5.880e-002 	
       134.847	  1.408e-001 	             	
       134.904	             	  5.880e-002 	
       134.911	  1.424e-001 	             	
       134.968	             	  5.880e-002 	
       134.975	  1.419e-001 	             	
       135.032	             	  5.880e-002 	
       135.039	  1.412e-001 	             	
       135.096	             	  5.880e-002 	
       135.103	  1.403e-001 	             	
       135.160	             	  5.880e-002 	
       135.167	  1.397e-001 	             	
       135.224	             	  5.880e-002 	
       135.231	  1.424e-001 	             	
       135.288	             	  5.880e-002 	
       135.295	  1.418e-001 	             	
       135.352	             	  5.880e-002 	
       135.359	  1.411e-001 	             	
       135.416	             	  5.890e-002 	
       135.423	  1.405e-001 	             	
       135.480	             	  5.890e-002 	
       135.487	  1.401e-001 	             	
       135.551	  1.400e-001 	             	
       135.576	             	  5.890e-002 	
       135.640	             	  5.900e-002 	
       135.647	  1.395e-001 	             	
       135.704	             	  5.890e-002 	
       135.711	  1.408e-001 	             	
       135.768	             	  5.890e-002 	
       135.775	  1.401e-001 	             	
       135.832	             	  5.890e-002 	
       135.839	  1.424e-001 	             	
       135.896	             	  5.890e-002 	
       135.903	  1.409e-001 	             	
       135.960	             	  5.880e-002 	
       135.967	  1.403e-001 	             	
       136.024	             	  5.880e-002 	
       136.031	  1.415e-001 	             	
       136.088	             	  5.880e-002 	
       136.095	  1.405e-001 	             	
       136.152	             	  5.880e-002 	
       136.159	  1.411e-001 	             	
       136.216	             	  5.870e-002 	
       136.223	  1.415e-001 	             	
       136.280	             	  5.870e-002 	
       136.287	  1.404e-001 	             	
       136.351	  1.413e-001 	             	
       136.376	             	  5.870e-002 	
       136.440	             	  5.860e-002 	
       136.447	  1.421e-001 	             	
       136.504	             	  5.860e-002 	
       136.511	  1.412e-001 	             	
       136.568	             	  5.860e-002 	
       136.575	  1.425e-001 	             	
       136.632	             	  5.860e-002 	
       136.639	  1.413e-001 	             	
       136.696	             	  5.860e-002 	
       136.703	  1.403e-001 	             	
       136.760	             	  5.860e-002 	
       136.767	  1.404e-001 	             	
       136.824	             	  5.870e-002 	
       136.831	  1.417e-001 	             	
       136.888	             	  5.870e-002 	
       136.895	  1.410e-001 	             	
       136.952	             	  5.870e-002 	
       136.959	  1.414e-001 	             	
       137.016	             	  5.870e-002 	
       137.023	  1.416e-001 	             	
       137.080	             	  5.860e-002 	
       137.087	  1.414e-001 	             	
       137.151	  1.409e-001 	             	
       137.176	             	  5.860e-002 	
