;PC Software:StarLab Version 2.10 Build 25
;Logged:22/09/2022 at 15:09:41
;File Version:3
;Graph Type:Line
;Notes:                                                            

;Channel A:Nova II Photodiode PD300-3W-v1 (s/n:763106)  NN2.52 (s/n:767396)
;Channel B:Vega Thermopile 10A-V1.1 (s/n:693380)  VG2.44 (s/n:858327)

;Channel A:Details
;Name:PD300-3W-v1
;Graph Color:RGB(0,102,255)
;Units:W
;Settings:Measuring:Power
;Settings:Wavelength:1064
;Settings:Range:AUTO
;Settings:Filter:IN

;Channel B:Details
;Name:10A-V1.1
;Graph Color:RGB(154,0,0)
;Units:W
;Settings:Measuring:Power
;Settings:Laser:.8-6
;Settings:Range:AUTO
;--------------------


;First Pulse Arrived : 22/09/2022 at 15:09:41.384000
  Timestamp   	  Channel A  	  Channel B  	
         0.000	  6.090e-003 	             	
         0.025	             	  4.289e-001 	
         0.064	  6.110e-003 	             	
         0.089	             	  4.288e-001 	
         0.128	  6.130e-003 	             	
         0.153	             	  4.288e-001 	
         0.192	  6.110e-003 	             	
         0.217	             	  4.288e-001 	
         0.256	  6.100e-003 	             	
         0.281	             	  4.288e-001 	
         0.320	  6.110e-003 	             	
         0.377	             	  4.288e-001 	
         0.416	  6.100e-003 	             	
         0.441	             	  4.288e-001 	
         0.480	  6.120e-003 	             	
         0.505	             	  4.288e-001 	
         0.544	  6.130e-003 	             	
         0.569	             	  4.288e-001 	
         0.608	  6.070e-003 	             	
         0.633	             	  4.287e-001 	
         0.672	  6.070e-003 	             	
         0.697	             	  4.286e-001 	
         0.736	  6.090e-003 	             	
         0.761	             	  4.285e-001 	
         0.800	  6.110e-003 	             	
         0.825	             	  4.285e-001 	
         0.864	  6.100e-003 	             	
         0.889	             	  4.285e-001 	
         0.928	  6.040e-003 	             	
         0.953	             	  4.285e-001 	
         0.992	  6.090e-003 	             	
         1.017	             	  4.285e-001 	
         1.056	  6.060e-003 	             	
         1.081	             	  4.285e-001 	
         1.120	  6.110e-003 	             	
         1.177	             	  4.285e-001 	
         1.216	  6.120e-003 	             	
         1.241	             	  4.285e-001 	
         1.280	  6.080e-003 	             	
         1.305	             	  4.285e-001 	
         1.344	  6.090e-003 	             	
         1.370	             	  4.284e-001 	
         1.409	  6.060e-003 	             	
         1.434	             	  4.284e-001 	
         1.473	  6.070e-003 	             	
         1.498	             	  4.284e-001 	
         1.537	  6.050e-003 	             	
         1.562	             	  4.284e-001 	
         1.601	  6.070e-003 	             	
         1.626	             	  4.284e-001 	
         1.665	  6.050e-003 	             	
         1.690	             	  4.285e-001 	
         1.729	  6.030e-003 	             	
         1.754	             	  4.286e-001 	
         1.793	  6.040e-003 	             	
         1.818	             	  4.286e-001 	
         1.857	  6.080e-003 	             	
         1.882	             	  4.286e-001 	
         1.921	  6.000e-003 	             	
         1.978	             	  4.286e-001 	
         2.017	  6.070e-003 	             	
         2.042	             	  4.286e-001 	
         2.081	  6.090e-003 	             	
         2.106	             	  4.285e-001 	
         2.145	  6.080e-003 	             	
         2.170	             	  4.285e-001 	
         2.209	  6.010e-003 	             	
         2.234	             	  4.284e-001 	
         2.273	  6.150e-003 	             	
         2.298	             	  4.284e-001 	
         2.337	  6.090e-003 	             	
         2.362	             	  4.284e-001 	
         2.401	  6.070e-003 	             	
         2.426	             	  4.284e-001 	
         2.465	  6.060e-003 	             	
         2.490	             	  4.284e-001 	
         2.529	  6.070e-003 	             	
         2.554	             	  4.283e-001 	
         2.593	  6.070e-003 	             	
         2.618	             	  4.282e-001 	
         2.657	  6.070e-003 	             	
         2.682	             	  4.282e-001 	
         2.721	  6.100e-003 	             	
         2.778	             	  4.282e-001 	
         2.817	  6.070e-003 	             	
         2.842	             	  4.283e-001 	
         2.881	  6.100e-003 	             	
         2.906	             	  4.284e-001 	
         2.945	  6.090e-003 	             	
         2.970	             	  4.285e-001 	
         3.009	  6.050e-003 	             	
         3.034	             	  4.285e-001 	
         3.073	  6.100e-003 	             	
         3.098	             	  4.285e-001 	
         3.137	  6.060e-003 	             	
         3.162	             	  4.285e-001 	
         3.201	  6.070e-003 	             	
         3.226	             	  4.285e-001 	
         3.265	  6.070e-003 	             	
         3.290	             	  4.285e-001 	
         3.329	  6.050e-003 	             	
         3.354	             	  4.285e-001 	
         3.393	  6.040e-003 	             	
         3.418	             	  4.285e-001 	
         3.457	  6.050e-003 	             	
         3.482	             	  4.284e-001 	
         3.521	  6.040e-003 	             	
         3.578	             	  4.284e-001 	
         3.617	  6.070e-003 	             	
         3.642	             	  4.284e-001 	
         3.681	  6.080e-003 	             	
         3.706	             	  4.283e-001 	
         3.745	  6.060e-003 	             	
         3.770	             	  4.283e-001 	
         3.809	  6.000e-003 	             	
         3.834	             	  4.283e-001 	
         3.873	  6.010e-003 	             	
         3.898	             	  4.284e-001 	
         3.937	  6.070e-003 	             	
         3.962	             	  4.284e-001 	
         4.001	  6.010e-003 	             	
         4.026	             	  4.284e-001 	
         4.065	  6.020e-003 	             	
         4.090	             	  4.284e-001 	
         4.129	  6.040e-003 	             	
         4.154	             	  4.284e-001 	
         4.193	  6.010e-003 	             	
         4.218	             	  4.284e-001 	
         4.257	  6.080e-003 	             	
         4.282	             	  4.285e-001 	
         4.321	  6.060e-003 	             	
         4.378	             	  4.285e-001 	
         4.417	  6.050e-003 	             	
         4.442	             	  4.285e-001 	
         4.481	  5.980e-003 	             	
         4.506	             	  4.285e-001 	
         4.545	  5.990e-003 	             	
         4.570	             	  4.285e-001 	
         4.609	  6.000e-003 	             	
         4.634	             	  4.285e-001 	
         4.673	  5.990e-003 	             	
         4.698	             	  4.285e-001 	
         4.737	  5.960e-003 	             	
         4.762	             	  4.285e-001 	
         4.801	  5.920e-003 	             	
         4.826	             	  4.284e-001 	
         4.865	  5.920e-003 	             	
         4.890	             	  4.285e-001 	
         4.929	  5.910e-003 	             	
         4.954	             	  4.284e-001 	
         4.993	  5.900e-003 	             	
         5.018	             	  4.284e-001 	
         5.057	  5.870e-003 	             	
         5.082	             	  4.284e-001 	
         5.121	  5.850e-003 	             	
         5.178	             	  4.283e-001 	
         5.185	  5.820e-003 	             	
         5.242	             	  4.282e-001 	
         5.281	  5.880e-003 	             	
         5.306	             	  4.281e-001 	
         5.345	  5.890e-003 	             	
         5.370	             	  4.281e-001 	
         5.409	  5.820e-003 	             	
         5.434	             	  4.281e-001 	
         5.473	  5.840e-003 	             	
         5.498	             	  4.281e-001 	
         5.537	  5.860e-003 	             	
         5.562	             	  4.282e-001 	
         5.601	  5.900e-003 	             	
         5.626	             	  4.281e-001 	
         5.665	  5.900e-003 	             	
         5.690	             	  4.281e-001 	
         5.729	  5.910e-003 	             	
         5.754	             	  4.281e-001 	
         5.793	  5.920e-003 	             	
         5.818	             	  4.281e-001 	
         5.857	  5.990e-003 	             	
         5.882	             	  4.281e-001 	
         5.921	  5.960e-003 	             	
         5.978	             	  4.281e-001 	
         5.985	  5.980e-003 	             	
         6.042	             	  4.282e-001 	
         6.081	  5.980e-003 	             	
         6.106	             	  4.282e-001 	
         6.145	  6.010e-003 	             	
         6.170	             	  4.282e-001 	
         6.209	  5.990e-003 	             	
         6.234	             	  4.282e-001 	
         6.273	  6.050e-003 	             	
         6.298	             	  4.281e-001 	
         6.337	  6.030e-003 	             	
         6.362	             	  4.281e-001 	
         6.401	  6.030e-003 	             	
         6.426	             	  4.281e-001 	
         6.465	  6.050e-003 	             	
         6.490	             	  4.281e-001 	
         6.529	  6.010e-003 	             	
         6.554	             	  4.281e-001 	
         6.593	  5.980e-003 	             	
         6.618	             	  4.281e-001 	
         6.657	  5.930e-003 	             	
         6.682	             	  4.281e-001 	
         6.721	  5.910e-003 	             	
         6.778	             	  4.282e-001 	
         6.785	  5.970e-003 	             	
         6.842	             	  4.282e-001 	
         6.881	  5.940e-003 	             	
         6.906	             	  4.282e-001 	
         6.945	  5.920e-003 	             	
         6.970	             	  4.282e-001 	
         7.009	  5.880e-003 	             	
         7.034	             	  4.281e-001 	
         7.073	  5.910e-003 	             	
         7.098	             	  4.281e-001 	
         7.137	  5.890e-003 	             	
         7.162	             	  4.280e-001 	
         7.201	  5.880e-003 	             	
         7.226	             	  4.280e-001 	
         7.265	  5.880e-003 	             	
         7.290	             	  4.280e-001 	
         7.329	  5.840e-003 	             	
         7.354	             	  4.280e-001 	
         7.393	  5.840e-003 	             	
         7.418	             	  4.281e-001 	
         7.457	  5.860e-003 	             	
         7.482	             	  4.281e-001 	
         7.521	  5.850e-003 	             	
         7.578	             	  4.280e-001 	
         7.585	  5.860e-003 	             	
         7.642	             	  4.279e-001 	
         7.681	  5.860e-003 	             	
         7.706	             	  4.279e-001 	
         7.745	  5.830e-003 	             	
         7.770	             	  4.280e-001 	
         7.809	  5.840e-003 	             	
         7.834	             	  4.280e-001 	
         7.873	  5.850e-003 	             	
         7.898	             	  4.280e-001 	
         7.937	  5.860e-003 	             	
         7.962	             	  4.280e-001 	
         8.001	  5.910e-003 	             	
         8.026	             	  4.279e-001 	
         8.065	  5.910e-003 	             	
         8.090	             	  4.279e-001 	
         8.129	  5.930e-003 	             	
         8.154	             	  4.279e-001 	
         8.193	  5.880e-003 	             	
         8.218	             	  4.280e-001 	
         8.257	  5.930e-003 	             	
         8.282	             	  4.279e-001 	
         8.321	  5.920e-003 	             	
         8.346	             	  4.279e-001 	
         8.385	  5.930e-003 	             	
         8.442	             	  4.279e-001 	
         8.481	  5.910e-003 	             	
         8.506	             	  4.278e-001 	
         8.545	  5.870e-003 	             	
         8.570	             	  4.278e-001 	
         8.609	  5.900e-003 	             	
         8.634	             	  4.278e-001 	
         8.673	  6.000e-003 	             	
         8.698	             	  4.278e-001 	
         8.737	  5.940e-003 	             	
         8.762	             	  4.278e-001 	
         8.801	  5.930e-003 	             	
         8.826	             	  4.279e-001 	
         8.865	  5.950e-003 	             	
         8.890	             	  4.279e-001 	
         8.929	  5.950e-003 	             	
         8.954	             	  4.280e-001 	
         8.993	  5.920e-003 	             	
         9.018	             	  4.280e-001 	
         9.057	  5.900e-003 	             	
         9.082	             	  4.280e-001 	
         9.121	  5.910e-003 	             	
         9.146	             	  4.280e-001 	
         9.185	  5.890e-003 	             	
         9.242	             	  4.280e-001 	
         9.281	  5.870e-003 	             	
         9.306	             	  4.279e-001 	
         9.345	  5.880e-003 	             	
         9.370	             	  4.279e-001 	
         9.409	  5.940e-003 	             	
         9.434	             	  4.278e-001 	
         9.473	  5.940e-003 	             	
         9.498	             	  4.278e-001 	
         9.537	  5.940e-003 	             	
         9.562	             	  4.277e-001 	
         9.601	  5.920e-003 	             	
         9.625	             	  4.278e-001 	
         9.665	  5.960e-003 	             	
         9.690	             	  4.278e-001 	
         9.729	  5.930e-003 	             	
         9.753	             	  4.279e-001 	
         9.793	  5.910e-003 	             	
         9.818	             	  4.280e-001 	
         9.857	  5.930e-003 	             	
         9.882	             	  4.280e-001 	
         9.921	  5.930e-003 	             	
         9.946	             	  4.280e-001 	
         9.985	  5.930e-003 	             	
        10.042	             	  4.279e-001 	
        10.081	  5.940e-003 	             	
        10.106	             	  4.279e-001 	
        10.145	  5.950e-003 	             	
        10.170	             	  4.278e-001 	
        10.209	  5.900e-003 	             	
        10.234	             	  4.277e-001 	
        10.273	  5.910e-003 	             	
        10.297	             	  4.277e-001 	
        10.337	  5.940e-003 	             	
        10.362	             	  4.278e-001 	
        10.401	  5.900e-003 	             	
        10.426	             	  4.278e-001 	
        10.465	  5.950e-003 	             	
        10.490	             	  4.278e-001 	
        10.529	  5.960e-003 	             	
        10.553	             	  4.277e-001 	
        10.593	  5.920e-003 	             	
        10.617	             	  4.277e-001 	
        10.657	  5.930e-003 	             	
        10.681	             	  4.277e-001 	
        10.721	  5.930e-003 	             	
        10.746	             	  4.277e-001 	
        10.785	  5.930e-003 	             	
        10.841	             	  4.277e-001 	
        10.881	  5.910e-003 	             	
        10.905	             	  4.277e-001 	
        10.945	  5.910e-003 	             	
        10.970	             	  4.277e-001 	
        11.009	  5.880e-003 	             	
        11.033	             	  4.276e-001 	
        11.073	  5.980e-003 	             	
        11.097	             	  4.275e-001 	
        11.137	  5.960e-003 	             	
        11.161	             	  4.275e-001 	
        11.201	  5.940e-003 	             	
        11.225	             	  4.276e-001 	
        11.265	  5.970e-003 	             	
        11.290	             	  4.276e-001 	
        11.329	  5.970e-003 	             	
        11.353	             	  4.277e-001 	
        11.393	  5.960e-003 	             	
        11.417	             	  4.278e-001 	
        11.457	  5.910e-003 	             	
        11.481	             	  4.278e-001 	
        11.521	  5.910e-003 	             	
        11.545	             	  4.279e-001 	
        11.585	  5.880e-003 	             	
        11.641	             	  4.279e-001 	
        11.681	  5.880e-003 	             	
        11.705	             	  4.279e-001 	
        11.745	  5.880e-003 	             	
        11.769	             	  4.278e-001 	
        11.809	  5.860e-003 	             	
        11.833	             	  4.277e-001 	
        11.873	  5.850e-003 	             	
        11.897	             	  4.277e-001 	
        11.937	  5.860e-003 	             	
        11.961	             	  4.276e-001 	
        12.001	  5.770e-003 	             	
        12.025	             	  4.276e-001 	
        12.065	  5.840e-003 	             	
        12.089	             	  4.276e-001 	
        12.129	  5.840e-003 	             	
        12.153	             	  4.275e-001 	
        12.193	  5.820e-003 	             	
        12.218	             	  4.275e-001 	
        12.257	  5.810e-003 	             	
        12.281	             	  4.275e-001 	
        12.321	  5.780e-003 	             	
        12.345	             	  4.275e-001 	
        12.385	  5.760e-003 	             	
        12.441	             	  4.276e-001 	
        12.481	  5.760e-003 	             	
        12.506	             	  4.276e-001 	
        12.545	  5.850e-003 	             	
        12.569	             	  4.276e-001 	
        12.609	  5.830e-003 	             	
        12.633	             	  4.277e-001 	
        12.673	  5.790e-003 	             	
        12.697	             	  4.277e-001 	
        12.737	  5.830e-003 	             	
        12.761	             	  4.278e-001 	
        12.801	  5.820e-003 	             	
        12.825	             	  4.279e-001 	
        12.865	  5.840e-003 	             	
        12.889	             	  4.279e-001 	
        12.929	  5.840e-003 	             	
        12.953	             	  4.279e-001 	
        12.993	  5.840e-003 	             	
        13.017	             	  4.280e-001 	
        13.057	  5.870e-003 	             	
        13.081	             	  4.280e-001 	
        13.121	  5.820e-003 	             	
        13.145	             	  4.280e-001 	
        13.185	  5.860e-003 	             	
        13.241	             	  4.280e-001 	
        13.281	  5.830e-003 	             	
        13.305	             	  4.279e-001 	
        13.345	  5.870e-003 	             	
        13.369	             	  4.279e-001 	
        13.409	  5.860e-003 	             	
        13.433	             	  4.279e-001 	
        13.473	  5.910e-003 	             	
        13.497	             	  4.279e-001 	
        13.537	  5.910e-003 	             	
        13.561	             	  4.279e-001 	
        13.601	  5.910e-003 	             	
        13.625	             	  4.279e-001 	
        13.665	  5.920e-003 	             	
        13.689	             	  4.279e-001 	
        13.729	  5.950e-003 	             	
        13.753	             	  4.279e-001 	
        13.793	  5.910e-003 	             	
        13.817	             	  4.278e-001 	
        13.857	  5.920e-003 	             	
        13.881	             	  4.278e-001 	
        13.921	  5.910e-003 	             	
        13.945	             	  4.278e-001 	
        13.985	  5.960e-003 	             	
        14.041	             	  4.278e-001 	
        14.081	  5.920e-003 	             	
        14.105	             	  4.278e-001 	
        14.145	  5.840e-003 	             	
        14.169	             	  4.278e-001 	
        14.209	  5.950e-003 	             	
        14.233	             	  4.278e-001 	
        14.273	  5.910e-003 	             	
        14.297	             	  4.278e-001 	
        14.336	  5.900e-003 	             	
        14.361	             	  4.278e-001 	
        14.401	  5.910e-003 	             	
        14.425	             	  4.277e-001 	
        14.465	  5.880e-003 	             	
        14.489	             	  4.277e-001 	
        14.528	  5.910e-003 	             	
        14.553	             	  4.277e-001 	
        14.592	  5.890e-003 	             	
        14.617	             	  4.276e-001 	
        14.656	  5.880e-003 	             	
        14.681	             	  4.277e-001 	
        14.720	  5.890e-003 	             	
        14.745	             	  4.277e-001 	
        14.784	  5.840e-003 	             	
        14.841	             	  4.277e-001 	
        14.880	  5.910e-003 	             	
        14.905	             	  4.277e-001 	
        14.944	  5.810e-003 	             	
        14.969	             	  4.277e-001 	
        15.008	  5.840e-003 	             	
        15.033	             	  4.276e-001 	
        15.072	  5.870e-003 	             	
        15.097	             	  4.275e-001 	
        15.136	  5.910e-003 	             	
        15.161	             	  4.274e-001 	
        15.200	  5.880e-003 	             	
        15.225	             	  4.274e-001 	
        15.264	  5.850e-003 	             	
        15.289	             	  4.274e-001 	
        15.328	  5.860e-003 	             	
        15.353	             	  4.275e-001 	
        15.392	  5.870e-003 	             	
        15.417	             	  4.274e-001 	
        15.456	  5.920e-003 	             	
        15.481	             	  4.274e-001 	
        15.520	  5.840e-003 	             	
        15.545	             	  4.275e-001 	
        15.584	  5.840e-003 	             	
        15.641	             	  4.275e-001 	
        15.680	  5.830e-003 	             	
        15.705	             	  4.275e-001 	
        15.744	  5.840e-003 	             	
        15.769	             	  4.276e-001 	
        15.808	  5.890e-003 	             	
        15.833	             	  4.276e-001 	
        15.872	  5.840e-003 	             	
        15.897	             	  4.276e-001 	
        15.936	  5.840e-003 	             	
        15.961	             	  4.276e-001 	
        16.000	  5.820e-003 	             	
        16.025	             	  4.276e-001 	
        16.064	  5.820e-003 	             	
        16.089	             	  4.276e-001 	
        16.128	  5.790e-003 	             	
        16.153	             	  4.276e-001 	
        16.192	  5.780e-003 	             	
        16.217	             	  4.276e-001 	
        16.256	  5.780e-003 	             	
        16.281	             	  4.276e-001 	
        16.320	  5.790e-003 	             	
        16.345	             	  4.275e-001 	
        16.384	  5.750e-003 	             	
        16.441	             	  4.276e-001 	
        16.480	  5.780e-003 	             	
        16.505	             	  4.276e-001 	
        16.544	  5.780e-003 	             	
        16.569	             	  4.276e-001 	
        16.608	  5.790e-003 	             	
        16.633	             	  4.276e-001 	
        16.672	  5.760e-003 	             	
        16.697	             	  4.277e-001 	
        16.736	  5.750e-003 	             	
        16.761	             	  4.277e-001 	
        16.800	  5.740e-003 	             	
        16.825	             	  4.277e-001 	
        16.864	  5.700e-003 	             	
        16.889	             	  4.276e-001 	
        16.928	  5.740e-003 	             	
        16.953	             	  4.276e-001 	
        16.992	  5.710e-003 	             	
        17.017	             	  4.276e-001 	
        17.056	  5.740e-003 	             	
        17.081	             	  4.277e-001 	
        17.120	  5.700e-003 	             	
        17.145	             	  4.278e-001 	
        17.184	  5.710e-003 	             	
        17.241	             	  4.279e-001 	
        17.280	  5.670e-003 	             	
        17.305	             	  4.279e-001 	
        17.344	  5.690e-003 	             	
        17.369	             	  4.280e-001 	
        17.408	  5.690e-003 	             	
        17.433	             	  4.280e-001 	
        17.472	  5.660e-003 	             	
        17.497	             	  4.279e-001 	
        17.536	  5.680e-003 	             	
        17.561	             	  4.279e-001 	
        17.600	  5.690e-003 	             	
        17.625	             	  4.278e-001 	
        17.664	  5.710e-003 	             	
        17.689	             	  4.279e-001 	
        17.728	  5.720e-003 	             	
        17.753	             	  4.279e-001 	
        17.792	  5.770e-003 	             	
        17.817	             	  4.279e-001 	
        17.856	  5.750e-003 	             	
        17.881	             	  4.278e-001 	
        17.920	  5.780e-003 	             	
        17.945	             	  4.278e-001 	
        17.984	  5.770e-003 	             	
        18.041	             	  4.278e-001 	
        18.048	  5.810e-003 	             	
        18.105	             	  4.278e-001 	
        18.144	  5.790e-003 	             	
        18.169	             	  4.279e-001 	
        18.208	  5.850e-003 	             	
        18.233	             	  4.279e-001 	
        18.272	  5.920e-003 	             	
        18.297	             	  4.279e-001 	
        18.336	  5.960e-003 	             	
        18.361	             	  4.279e-001 	
        18.400	  5.970e-003 	             	
        18.425	             	  4.280e-001 	
        18.464	  6.020e-003 	             	
        18.489	             	  4.281e-001 	
        18.528	  6.050e-003 	             	
        18.553	             	  4.282e-001 	
        18.592	  6.060e-003 	             	
        18.617	             	  4.282e-001 	
        18.656	  6.070e-003 	             	
        18.681	             	  4.282e-001 	
        18.720	  6.110e-003 	             	
        18.745	             	  4.282e-001 	
        18.784	  6.140e-003 	             	
        18.842	             	  4.282e-001 	
        18.881	  6.150e-003 	             	
        18.906	             	  4.281e-001 	
        18.945	  6.150e-003 	             	
        18.970	             	  4.281e-001 	
        19.009	  6.210e-003 	             	
        19.034	             	  4.281e-001 	
        19.073	  6.160e-003 	             	
        19.098	             	  4.281e-001 	
        19.137	  6.180e-003 	             	
        19.162	             	  4.281e-001 	
        19.201	  6.200e-003 	             	
        19.226	             	  4.281e-001 	
        19.265	  6.170e-003 	             	
        19.290	             	  4.281e-001 	
        19.329	  6.190e-003 	             	
        19.354	             	  4.280e-001 	
        19.393	  6.180e-003 	             	
        19.418	             	  4.281e-001 	
        19.457	  6.040e-003 	             	
        19.482	             	  4.281e-001 	
        19.521	  5.980e-003 	             	
        19.546	             	  4.281e-001 	
        19.585	  5.990e-003 	             	
        19.642	             	  4.281e-001 	
        19.649	  5.930e-003 	             	
        19.706	             	  4.281e-001 	
        19.745	  5.780e-003 	             	
        19.770	             	  4.281e-001 	
        19.809	  5.760e-003 	             	
        19.834	             	  4.282e-001 	
        19.873	  5.670e-003 	             	
        19.898	             	  4.283e-001 	
        19.937	  5.660e-003 	             	
        19.962	             	  4.284e-001 	
        20.001	  5.650e-003 	             	
        20.026	             	  4.285e-001 	
        20.065	  5.670e-003 	             	
        20.090	             	  4.284e-001 	
        20.129	  5.730e-003 	             	
        20.154	             	  4.283e-001 	
        20.193	  5.780e-003 	             	
        20.218	             	  4.283e-001 	
        20.257	  5.740e-003 	             	
        20.282	             	  4.282e-001 	
        20.321	  5.750e-003 	             	
        20.346	             	  4.282e-001 	
        20.385	  5.820e-003 	             	
        20.410	             	  4.281e-001 	
        20.449	  5.790e-003 	             	
        20.506	             	  4.281e-001 	
        20.545	  5.790e-003 	             	
        20.570	             	  4.281e-001 	
        20.609	  5.810e-003 	             	
        20.634	             	  4.281e-001 	
        20.673	  5.860e-003 	             	
        20.698	             	  4.282e-001 	
        20.737	  5.930e-003 	             	
        20.762	             	  4.282e-001 	
        20.801	  6.010e-003 	             	
        20.826	             	  4.282e-001 	
        20.865	  6.020e-003 	             	
        20.890	             	  4.282e-001 	
        20.929	  6.090e-003 	             	
        20.954	             	  4.282e-001 	
        20.993	  6.100e-003 	             	
        21.018	             	  4.282e-001 	
        21.057	  6.120e-003 	             	
        21.082	             	  4.282e-001 	
        21.121	  6.170e-003 	             	
        21.146	             	  4.282e-001 	
        21.185	  6.190e-003 	             	
        21.210	             	  4.283e-001 	
        21.249	  6.190e-003 	             	
        21.306	             	  4.282e-001 	
        21.345	  6.180e-003 	             	
        21.370	             	  4.281e-001 	
        21.409	  6.190e-003 	             	
        21.434	             	  4.281e-001 	
        21.473	  6.200e-003 	             	
        21.498	             	  4.281e-001 	
        21.537	  6.150e-003 	             	
        21.562	             	  4.281e-001 	
        21.601	  6.190e-003 	             	
        21.626	             	  4.281e-001 	
        21.665	  6.160e-003 	             	
        21.690	             	  4.281e-001 	
        21.729	  6.180e-003 	             	
        21.754	             	  4.282e-001 	
        21.793	  6.150e-003 	             	
        21.818	             	  4.281e-001 	
        21.857	  6.150e-003 	             	
        21.882	             	  4.281e-001 	
        21.921	  6.140e-003 	             	
        21.946	             	  4.281e-001 	
        21.985	  6.100e-003 	             	
        22.010	             	  4.281e-001 	
        22.049	  6.050e-003 	             	
        22.106	             	  4.281e-001 	
        22.145	  6.080e-003 	             	
        22.170	             	  4.281e-001 	
        22.209	  6.060e-003 	             	
        22.234	             	  4.281e-001 	
        22.273	  5.990e-003 	             	
        22.298	             	  4.281e-001 	
        22.337	  5.960e-003 	             	
        22.362	             	  4.281e-001 	
        22.401	  5.950e-003 	             	
        22.426	             	  4.281e-001 	
        22.465	  5.860e-003 	             	
        22.490	             	  4.281e-001 	
        22.529	  5.910e-003 	             	
        22.554	             	  4.280e-001 	
        22.593	  5.870e-003 	             	
        22.618	             	  4.280e-001 	
        22.657	  5.860e-003 	             	
        22.682	             	  4.280e-001 	
        22.721	  5.880e-003 	             	
        22.746	             	  4.281e-001 	
        22.785	  5.850e-003 	             	
        22.810	             	  4.282e-001 	
        22.849	  5.860e-003 	             	
        22.906	             	  4.282e-001 	
        22.945	  5.880e-003 	             	
        22.970	             	  4.282e-001 	
        23.009	  5.840e-003 	             	
        23.034	             	  4.282e-001 	
        23.073	  5.830e-003 	             	
        23.098	             	  4.282e-001 	
        23.137	  5.830e-003 	             	
        23.162	             	  4.281e-001 	
        23.201	  5.830e-003 	             	
        23.226	             	  4.281e-001 	
        23.265	  5.800e-003 	             	
        23.290	             	  4.281e-001 	
        23.329	  5.830e-003 	             	
        23.354	             	  4.281e-001 	
        23.393	  5.850e-003 	             	
        23.418	             	  4.281e-001 	
        23.457	  5.860e-003 	             	
        23.482	             	  4.281e-001 	
        23.521	  5.850e-003 	             	
        23.546	             	  4.281e-001 	
        23.585	  5.920e-003 	             	
        23.610	             	  4.282e-001 	
        23.649	  5.900e-003 	             	
        23.706	             	  4.281e-001 	
        23.745	  5.890e-003 	             	
        23.770	             	  4.281e-001 	
        23.809	  5.860e-003 	             	
        23.834	             	  4.282e-001 	
        23.873	  5.870e-003 	             	
        23.898	             	  4.282e-001 	
        23.937	  5.840e-003 	             	
        23.962	             	  4.282e-001 	
        24.001	  5.870e-003 	             	
        24.026	             	  4.282e-001 	
        24.065	  5.870e-003 	             	
        24.090	             	  4.282e-001 	
        24.129	  5.890e-003 	             	
        24.154	             	  4.281e-001 	
        24.193	  5.890e-003 	             	
        24.218	             	  4.281e-001 	
        24.257	  5.890e-003 	             	
        24.282	             	  4.281e-001 	
        24.321	  5.890e-003 	             	
        24.346	             	  4.282e-001 	
        24.385	  5.960e-003 	             	
        24.410	             	  4.282e-001 	
        24.449	  5.950e-003 	             	
        24.506	             	  4.283e-001 	
        24.545	  5.930e-003 	             	
        24.570	             	  4.283e-001 	
        24.609	  5.970e-003 	             	
        24.634	             	  4.284e-001 	
        24.673	  5.910e-003 	             	
        24.698	             	  4.284e-001 	
        24.737	  5.950e-003 	             	
        24.762	             	  4.284e-001 	
        24.801	  5.890e-003 	             	
        24.826	             	  4.283e-001 	
        24.865	  5.910e-003 	             	
        24.890	             	  4.283e-001 	
        24.929	  5.930e-003 	             	
        24.954	             	  4.283e-001 	
        24.993	  5.980e-003 	             	
        25.018	             	  4.283e-001 	
        25.057	  5.990e-003 	             	
        25.082	             	  4.283e-001 	
        25.121	  5.960e-003 	             	
        25.146	             	  4.282e-001 	
        25.185	  5.980e-003 	             	
        25.210	             	  4.282e-001 	
        25.249	  5.990e-003 	             	
        25.306	             	  4.281e-001 	
        25.345	  5.990e-003 	             	
        25.370	             	  4.281e-001 	
        25.409	  6.010e-003 	             	
        25.434	             	  4.280e-001 	
        25.473	  5.990e-003 	             	
        25.498	             	  4.280e-001 	
        25.537	  6.010e-003 	             	
        25.562	             	  4.279e-001 	
        25.601	  6.050e-003 	             	
        25.626	             	  4.279e-001 	
        25.665	  6.050e-003 	             	
        25.690	             	  4.279e-001 	
        25.729	  6.010e-003 	             	
        25.754	             	  4.279e-001 	
        25.793	  6.020e-003 	             	
        25.818	             	  4.280e-001 	
        25.857	  6.000e-003 	             	
        25.882	             	  4.279e-001 	
        25.921	  5.990e-003 	             	
        25.946	             	  4.279e-001 	
        25.985	  6.030e-003 	             	
        26.010	             	  4.279e-001 	
        26.049	  6.000e-003 	             	
        26.106	             	  4.279e-001 	
        26.145	  5.990e-003 	             	
        26.170	             	  4.279e-001 	
        26.209	  5.990e-003 	             	
        26.234	             	  4.278e-001 	
        26.273	  5.930e-003 	             	
        26.298	             	  4.278e-001 	
        26.337	  5.960e-003 	             	
        26.362	             	  4.278e-001 	
        26.401	  5.930e-003 	             	
        26.426	             	  4.278e-001 	
        26.465	  5.910e-003 	             	
        26.490	             	  4.278e-001 	
        26.529	  5.900e-003 	             	
        26.554	             	  4.278e-001 	
        26.593	  5.900e-003 	             	
        26.618	             	  4.278e-001 	
        26.657	  5.890e-003 	             	
        26.682	             	  4.279e-001 	
        26.721	  5.890e-003 	             	
        26.746	             	  4.279e-001 	
        26.785	  5.870e-003 	             	
        26.810	             	  4.279e-001 	
        26.849	  5.890e-003 	             	
        26.906	             	  4.279e-001 	
        26.945	  5.870e-003 	             	
        26.970	             	  4.279e-001 	
        27.009	  5.830e-003 	             	
        27.034	             	  4.279e-001 	
        27.073	  5.870e-003 	             	
        27.098	             	  4.280e-001 	
        27.137	  5.830e-003 	             	
        27.162	             	  4.280e-001 	
        27.201	  5.790e-003 	             	
        27.225	             	  4.279e-001 	
        27.265	  5.800e-003 	             	
        27.290	             	  4.278e-001 	
        27.329	  5.770e-003 	             	
        27.354	             	  4.278e-001 	
        27.393	  5.750e-003 	             	
        27.418	             	  4.278e-001 	
        27.457	  5.710e-003 	             	
        27.482	             	  4.278e-001 	
        27.521	  5.670e-003 	             	
        27.545	             	  4.278e-001 	
        27.585	  5.830e-003 	             	
        27.610	             	  4.278e-001 	
        27.649	  5.840e-003 	             	
        27.706	             	  4.278e-001 	
        27.745	  5.850e-003 	             	
        27.770	             	  4.278e-001 	
        27.809	  5.870e-003 	             	
        27.834	             	  4.278e-001 	
        27.873	  5.860e-003 	             	
        27.897	             	  4.277e-001 	
        27.937	  5.820e-003 	             	
        27.962	             	  4.277e-001 	
        28.001	  5.790e-003 	             	
        28.026	             	  4.277e-001 	
        28.065	  5.820e-003 	             	
        28.089	             	  4.277e-001 	
        28.129	  5.810e-003 	             	
        28.154	             	  4.277e-001 	
        28.193	  5.760e-003 	             	
        28.217	             	  4.277e-001 	
        28.257	  5.690e-003 	             	
        28.281	             	  4.277e-001 	
        28.321	  5.670e-003 	             	
        28.345	             	  4.277e-001 	
        28.385	  5.660e-003 	             	
        28.409	             	  4.277e-001 	
        28.449	  5.660e-003 	             	
        28.506	             	  4.277e-001 	
        28.545	  5.650e-003 	             	
        28.569	             	  4.277e-001 	
        28.609	  5.630e-003 	             	
        28.633	             	  4.277e-001 	
        28.673	  5.610e-003 	             	
        28.697	             	  4.277e-001 	
        28.737	  5.580e-003 	             	
        28.761	             	  4.277e-001 	
        28.801	  5.560e-003 	             	
        28.825	             	  4.277e-001 	
        28.865	  5.560e-003 	             	
        28.889	             	  4.277e-001 	
        28.929	  5.600e-003 	             	
        28.953	             	  4.276e-001 	
        28.993	  5.640e-003 	             	
        29.017	             	  4.276e-001 	
        29.057	  5.660e-003 	             	
        29.081	             	  4.276e-001 	
        29.121	  5.710e-003 	             	
        29.145	             	  4.275e-001 	
        29.185	  5.720e-003 	             	
        29.209	             	  4.275e-001 	
        29.249	  5.680e-003 	             	
        29.305	             	  4.274e-001 	
        29.345	  5.760e-003 	             	
        29.370	             	  4.274e-001 	
        29.409	  5.780e-003 	             	
        29.433	             	  4.273e-001 	
        29.473	  5.830e-003 	             	
        29.497	             	  4.273e-001 	
        29.537	  5.850e-003 	             	
        29.562	             	  4.274e-001 	
        29.601	  5.870e-003 	             	
        29.625	             	  4.275e-001 	
        29.665	  5.860e-003 	             	
        29.689	             	  4.275e-001 	
        29.729	  5.950e-003 	             	
        29.753	             	  4.276e-001 	
        29.793	  5.970e-003 	             	
        29.817	             	  4.276e-001 	
        29.857	  5.970e-003 	             	
        29.881	             	  4.276e-001 	
        29.921	  5.980e-003 	             	
        29.945	             	  4.276e-001 	
        29.985	  5.940e-003 	             	
        30.009	             	  4.276e-001 	
        30.049	  6.010e-003 	             	
        30.105	             	  4.275e-001 	
        30.145	  6.030e-003 	             	
        30.169	             	  4.274e-001 	
        30.209	  6.030e-003 	             	
        30.233	             	  4.274e-001 	
        30.273	  6.070e-003 	             	
        30.297	             	  4.274e-001 	
        30.337	  6.110e-003 	             	
        30.361	             	  4.274e-001 	
        30.401	  6.120e-003 	             	
        30.425	             	  4.275e-001 	
        30.465	  6.120e-003 	             	
        30.489	             	  4.276e-001 	
        30.529	  6.090e-003 	             	
        30.553	             	  4.276e-001 	
        30.593	  6.080e-003 	             	
        30.617	             	  4.278e-001 	
        30.657	  6.100e-003 	             	
        30.681	             	  4.279e-001 	
        30.721	  6.130e-003 	             	
        30.745	             	  4.279e-001 	
        30.785	  6.120e-003 	             	
        30.809	             	  4.279e-001 	
        30.849	  6.090e-003 	             	
        30.905	             	  4.279e-001 	
        30.945	  6.100e-003 	             	
        30.969	             	  4.280e-001 	
        31.009	  6.080e-003 	             	
        31.033	             	  4.279e-001 	
        31.073	  6.110e-003 	             	
        31.097	             	  4.279e-001 	
        31.137	  6.120e-003 	             	
        31.161	             	  4.278e-001 	
        31.201	  6.100e-003 	             	
        31.225	             	  4.277e-001 	
        31.264	  6.080e-003 	             	
        31.289	             	  4.277e-001 	
        31.328	  6.100e-003 	             	
        31.353	             	  4.277e-001 	
        31.393	  6.070e-003 	             	
        31.417	             	  4.276e-001 	
        31.457	  6.120e-003 	             	
        31.481	             	  4.276e-001 	
        31.521	  6.050e-003 	             	
        31.545	             	  4.276e-001 	
        31.585	  6.070e-003 	             	
        31.609	             	  4.276e-001 	
        31.649	  6.060e-003 	             	
        31.705	             	  4.277e-001 	
        31.744	  6.090e-003 	             	
        31.769	             	  4.277e-001 	
        31.809	  5.990e-003 	             	
        31.833	             	  4.277e-001 	
        31.873	  6.040e-003 	             	
        31.897	             	  4.276e-001 	
        31.937	  6.020e-003 	             	
        31.961	             	  4.276e-001 	
        32.001	  5.980e-003 	             	
        32.025	             	  4.276e-001 	
        32.065	  5.920e-003 	             	
        32.089	             	  4.277e-001 	
        32.128	  5.920e-003 	             	
        32.153	             	  4.276e-001 	
        32.193	  5.980e-003 	             	
        32.217	             	  4.276e-001 	
        32.257	  5.910e-003 	             	
        32.281	             	  4.276e-001 	
        32.321	  5.950e-003 	             	
        32.345	             	  4.275e-001 	
        32.385	  5.950e-003 	             	
        32.409	             	  4.275e-001 	
        32.448	  5.960e-003 	             	
        32.505	             	  4.276e-001 	
        32.513	  5.930e-003 	             	
        32.569	             	  4.276e-001 	
        32.608	  5.920e-003 	             	
        32.633	             	  4.276e-001 	
        32.673	  5.920e-003 	             	
        32.697	             	  4.277e-001 	
        32.736	  5.880e-003 	             	
        32.761	             	  4.277e-001 	
        32.800	  5.840e-003 	             	
        32.825	             	  4.278e-001 	
        32.864	  5.910e-003 	             	
        32.889	             	  4.279e-001 	
        32.928	  5.830e-003 	             	
        32.953	             	  4.279e-001 	
        32.993	  5.900e-003 	             	
        33.017	             	  4.279e-001 	
        33.056	  5.850e-003 	             	
        33.081	             	  4.278e-001 	
        33.120	  5.830e-003 	             	
        33.145	             	  4.278e-001 	
        33.184	  5.830e-003 	             	
        33.209	             	  4.277e-001 	
        33.249	  5.840e-003 	             	
        33.273	             	  4.277e-001 	
        33.312	  5.850e-003 	             	
        33.369	             	  4.277e-001 	
        33.408	  5.870e-003 	             	
        33.433	             	  4.277e-001 	
        33.473	  5.850e-003 	             	
        33.497	             	  4.277e-001 	
        33.536	  5.840e-003 	             	
        33.561	             	  4.278e-001 	
        33.600	  5.860e-003 	             	
        33.625	             	  4.278e-001 	
        33.664	  5.860e-003 	             	
        33.689	             	  4.278e-001 	
        33.728	  5.860e-003 	             	
        33.753	             	  4.277e-001 	
        33.792	  5.860e-003 	             	
        33.817	             	  4.277e-001 	
        33.857	  5.850e-003 	             	
        33.881	             	  4.277e-001 	
        33.920	  5.870e-003 	             	
        33.945	             	  4.277e-001 	
        33.984	  5.860e-003 	             	
        34.009	             	  4.277e-001 	
        34.048	  5.880e-003 	             	
        34.073	             	  4.276e-001 	
        34.112	  5.910e-003 	             	
        34.169	             	  4.277e-001 	
        34.208	  5.910e-003 	             	
        34.233	             	  4.278e-001 	
        34.272	  5.910e-003 	             	
        34.297	             	  4.278e-001 	
        34.336	  5.940e-003 	             	
        34.361	             	  4.277e-001 	
        34.400	  5.980e-003 	             	
        34.425	             	  4.278e-001 	
        34.464	  6.000e-003 	             	
        34.489	             	  4.278e-001 	
        34.528	  6.020e-003 	             	
        34.553	             	  4.277e-001 	
        34.592	  6.020e-003 	             	
        34.617	             	  4.277e-001 	
        34.656	  6.020e-003 	             	
        34.681	             	  4.277e-001 	
        34.720	  6.100e-003 	             	
        34.745	             	  4.276e-001 	
        34.784	  6.060e-003 	             	
        34.809	             	  4.277e-001 	
        34.848	  6.020e-003 	             	
        34.873	             	  4.278e-001 	
        34.912	  6.030e-003 	             	
        34.969	             	  4.278e-001 	
        35.008	  6.090e-003 	             	
        35.033	             	  4.277e-001 	
        35.072	  6.080e-003 	             	
        35.097	             	  4.277e-001 	
        35.136	  6.060e-003 	             	
        35.161	             	  4.277e-001 	
        35.200	  6.080e-003 	             	
        35.225	             	  4.277e-001 	
        35.264	  6.080e-003 	             	
        35.289	             	  4.278e-001 	
        35.328	  6.070e-003 	             	
        35.353	             	  4.279e-001 	
        35.392	  6.120e-003 	             	
        35.417	             	  4.278e-001 	
        35.456	  6.110e-003 	             	
        35.481	             	  4.278e-001 	
        35.520	  6.110e-003 	             	
        35.545	             	  4.277e-001 	
        35.584	  6.160e-003 	             	
        35.609	             	  4.278e-001 	
        35.648	  6.120e-003 	             	
        35.673	             	  4.278e-001 	
        35.712	  6.140e-003 	             	
        35.769	             	  4.278e-001 	
        35.808	  6.140e-003 	             	
        35.833	             	  4.278e-001 	
        35.872	  6.120e-003 	             	
        35.897	             	  4.278e-001 	
        35.936	  6.170e-003 	             	
        35.961	             	  4.278e-001 	
        36.000	  6.120e-003 	             	
        36.025	             	  4.279e-001 	
        36.064	  6.130e-003 	             	
        36.089	             	  4.279e-001 	
        36.128	  6.170e-003 	             	
        36.153	             	  4.279e-001 	
        36.192	  6.100e-003 	             	
        36.217	             	  4.278e-001 	
        36.256	  6.180e-003 	             	
        36.281	             	  4.278e-001 	
        36.321	  6.150e-003 	             	
        36.346	             	  4.278e-001 	
        36.385	  6.140e-003 	             	
        36.410	             	  4.279e-001 	
        36.449	  6.170e-003 	             	
        36.474	             	  4.279e-001 	
        36.513	  6.150e-003 	             	
        36.570	             	  4.279e-001 	
        36.609	  6.120e-003 	             	
        36.634	             	  4.279e-001 	
        36.673	  6.100e-003 	             	
        36.698	             	  4.280e-001 	
        36.737	  6.080e-003 	             	
        36.762	             	  4.280e-001 	
        36.801	  6.060e-003 	             	
        36.826	             	  4.280e-001 	
        36.865	  6.050e-003 	             	
        36.890	             	  4.279e-001 	
        36.929	  6.050e-003 	             	
        36.954	             	  4.278e-001 	
        36.993	  6.040e-003 	             	
        37.018	             	  4.278e-001 	
        37.057	  6.020e-003 	             	
        37.082	             	  4.278e-001 	
        37.121	  6.000e-003 	             	
        37.146	             	  4.279e-001 	
        37.185	  6.000e-003 	             	
        37.210	             	  4.279e-001 	
        37.249	  5.970e-003 	             	
        37.274	             	  4.279e-001 	
        37.313	  5.930e-003 	             	
        37.370	             	  4.281e-001 	
        37.409	  5.970e-003 	             	
        37.434	             	  4.281e-001 	
        37.473	  5.970e-003 	             	
        37.498	             	  4.281e-001 	
        37.537	  5.990e-003 	             	
        37.562	             	  4.281e-001 	
        37.601	  6.000e-003 	             	
        37.626	             	  4.280e-001 	
        37.665	  5.970e-003 	             	
        37.690	             	  4.280e-001 	
        37.729	  6.040e-003 	             	
        37.754	             	  4.280e-001 	
        37.793	  6.060e-003 	             	
        37.818	             	  4.279e-001 	
        37.857	  6.090e-003 	             	
        37.882	             	  4.280e-001 	
        37.921	  6.080e-003 	             	
        37.946	             	  4.281e-001 	
        37.985	  6.110e-003 	             	
        38.010	             	  4.282e-001 	
        38.049	  6.080e-003 	             	
        38.074	             	  4.282e-001 	
        38.113	  6.020e-003 	             	
        38.170	             	  4.282e-001 	
        38.209	  6.070e-003 	             	
        38.234	             	  4.282e-001 	
        38.273	  6.070e-003 	             	
        38.298	             	  4.282e-001 	
        38.337	  6.040e-003 	             	
        38.362	             	  4.282e-001 	
        38.401	  6.050e-003 	             	
        38.426	             	  4.281e-001 	
        38.465	  5.990e-003 	             	
        38.490	             	  4.281e-001 	
        38.529	  6.040e-003 	             	
        38.554	             	  4.281e-001 	
        38.593	  6.050e-003 	             	
        38.618	             	  4.281e-001 	
        38.657	  5.980e-003 	             	
        38.682	             	  4.281e-001 	
        38.721	  5.970e-003 	             	
        38.746	             	  4.282e-001 	
        38.785	  5.940e-003 	             	
        38.810	             	  4.282e-001 	
        38.849	  5.900e-003 	             	
        38.874	             	  4.283e-001 	
        38.913	  5.840e-003 	             	
        38.970	             	  4.283e-001 	
        39.009	  5.800e-003 	             	
        39.034	             	  4.283e-001 	
        39.073	  5.770e-003 	             	
        39.098	             	  4.283e-001 	
        39.137	  5.980e-003 	             	
        39.162	             	  4.283e-001 	
        39.201	  6.290e-003 	             	
        39.226	             	  4.283e-001 	
        39.265	  6.600e-003 	             	
        39.290	             	  4.282e-001 	
        39.329	  7.030e-003 	             	
        39.354	             	  4.282e-001 	
        39.393	  7.520e-003 	             	
        39.418	             	  4.282e-001 	
        39.457	  7.700e-003 	             	
        39.482	             	  4.281e-001 	
        39.521	  7.640e-003 	             	
        39.546	             	  4.280e-001 	
        39.585	  7.310e-003 	             	
        39.610	             	  4.281e-001 	
        39.649	  6.880e-003 	             	
        39.674	             	  4.281e-001 	
        39.713	  6.550e-003 	             	
        39.770	             	  4.282e-001 	
        39.809	  6.210e-003 	             	
        39.834	             	  4.282e-001 	
        39.873	  5.990e-003 	             	
        39.898	             	  4.281e-001 	
        39.937	  5.780e-003 	             	
        39.962	             	  4.281e-001 	
        40.001	  5.800e-003 	             	
        40.026	             	  4.281e-001 	
        40.065	  5.820e-003 	             	
        40.090	             	  4.281e-001 	
        40.129	  5.760e-003 	             	
        40.154	             	  4.281e-001 	
        40.193	  5.810e-003 	             	
        40.218	             	  4.281e-001 	
        40.257	  5.880e-003 	             	
        40.282	             	  4.282e-001 	
        40.321	  5.880e-003 	             	
        40.346	             	  4.282e-001 	
        40.385	  5.970e-003 	             	
        40.410	             	  4.282e-001 	
        40.449	  6.020e-003 	             	
        40.474	             	  4.282e-001 	
        40.513	  6.030e-003 	             	
        40.570	             	  4.281e-001 	
        40.609	  6.080e-003 	             	
        40.634	             	  4.280e-001 	
        40.673	  6.110e-003 	             	
        40.698	             	  4.280e-001 	
        40.737	  6.200e-003 	             	
        40.762	             	  4.280e-001 	
        40.801	  6.200e-003 	             	
        40.826	             	  4.281e-001 	
        40.865	  6.230e-003 	             	
        40.890	             	  4.281e-001 	
        40.929	  6.230e-003 	             	
        40.954	             	  4.281e-001 	
        40.993	  6.270e-003 	             	
        41.018	             	  4.281e-001 	
        41.057	  6.240e-003 	             	
        41.082	             	  4.280e-001 	
        41.121	  6.290e-003 	             	
        41.146	             	  4.279e-001 	
        41.185	  6.270e-003 	             	
        41.210	             	  4.278e-001 	
        41.249	  6.320e-003 	             	
        41.274	             	  4.278e-001 	
        41.313	  6.260e-003 	             	
        41.370	             	  4.278e-001 	
        41.409	  6.230e-003 	             	
        41.434	             	  4.279e-001 	
        41.473	  6.210e-003 	             	
        41.498	             	  4.278e-001 	
        41.537	  6.090e-003 	             	
        41.562	             	  4.278e-001 	
        41.601	  6.120e-003 	             	
        41.626	             	  4.278e-001 	
        41.665	  6.100e-003 	             	
        41.690	             	  4.278e-001 	
        41.729	  6.080e-003 	             	
        41.754	             	  4.279e-001 	
        41.793	  6.100e-003 	             	
        41.818	             	  4.280e-001 	
        41.857	  6.020e-003 	             	
        41.882	             	  4.281e-001 	
        41.921	  6.070e-003 	             	
        41.946	             	  4.281e-001 	
        41.985	  5.900e-003 	             	
        42.010	             	  4.281e-001 	
        42.049	  5.870e-003 	             	
        42.074	             	  4.281e-001 	
        42.113	  5.940e-003 	             	
        42.170	             	  4.280e-001 	
        42.209	  5.950e-003 	             	
        42.234	             	  4.280e-001 	
        42.273	  5.990e-003 	             	
        42.298	             	  4.279e-001 	
        42.337	  6.020e-003 	             	
        42.362	             	  4.279e-001 	
        42.401	  6.060e-003 	             	
        42.426	             	  4.278e-001 	
        42.465	  6.050e-003 	             	
        42.490	             	  4.278e-001 	
        42.529	  6.100e-003 	             	
        42.554	             	  4.278e-001 	
        42.593	  6.070e-003 	             	
        42.618	             	  4.277e-001 	
        42.657	  6.000e-003 	             	
        42.682	             	  4.278e-001 	
        42.721	  6.040e-003 	             	
        42.746	             	  4.277e-001 	
        42.785	  6.080e-003 	             	
        42.810	             	  4.277e-001 	
        42.849	  6.110e-003 	             	
        42.874	             	  4.277e-001 	
        42.913	  6.110e-003 	             	
        42.970	             	  4.277e-001 	
        43.009	  6.120e-003 	             	
        43.034	             	  4.276e-001 	
        43.073	  6.130e-003 	             	
        43.098	             	  4.276e-001 	
        43.137	  6.110e-003 	             	
        43.162	             	  4.276e-001 	
        43.201	  6.060e-003 	             	
        43.226	             	  4.276e-001 	
        43.265	  6.070e-003 	             	
        43.290	             	  4.275e-001 	
        43.329	  6.030e-003 	             	
        43.354	             	  4.274e-001 	
        43.393	  6.070e-003 	             	
        43.418	             	  4.274e-001 	
        43.457	  6.100e-003 	             	
        43.482	             	  4.274e-001 	
        43.521	  6.150e-003 	             	
        43.546	             	  4.274e-001 	
        43.585	  6.120e-003 	             	
        43.610	             	  4.274e-001 	
        43.649	  6.160e-003 	             	
        43.674	             	  4.275e-001 	
        43.713	  6.150e-003 	             	
        43.770	             	  4.276e-001 	
        43.777	  6.170e-003 	             	
        43.834	             	  4.277e-001 	
        43.873	  6.160e-003 	             	
        43.898	             	  4.277e-001 	
        43.937	  6.130e-003 	             	
        43.962	             	  4.277e-001 	
        44.001	  6.140e-003 	             	
        44.026	             	  4.276e-001 	
        44.065	  6.120e-003 	             	
        44.090	             	  4.276e-001 	
        44.129	  6.130e-003 	             	
        44.154	             	  4.277e-001 	
        44.193	  6.130e-003 	             	
        44.218	             	  4.276e-001 	
        44.257	  6.140e-003 	             	
        44.282	             	  4.276e-001 	
        44.321	  6.090e-003 	             	
        44.346	             	  4.276e-001 	
        44.385	  6.040e-003 	             	
        44.410	             	  4.277e-001 	
        44.449	  6.030e-003 	             	
        44.474	             	  4.277e-001 	
        44.513	  6.010e-003 	             	
        44.570	             	  4.277e-001 	
        44.577	  5.980e-003 	             	
        44.634	             	  4.277e-001 	
        44.673	  5.890e-003 	             	
        44.697	             	  4.277e-001 	
        44.737	  5.910e-003 	             	
        44.762	             	  4.276e-001 	
        44.801	  5.940e-003 	             	
        44.826	             	  4.275e-001 	
        44.865	  5.970e-003 	             	
        44.890	             	  4.274e-001 	
        44.929	  6.000e-003 	             	
        44.954	             	  4.274e-001 	
        44.993	  6.020e-003 	             	
        45.018	             	  4.275e-001 	
        45.057	  6.030e-003 	             	
        45.081	             	  4.276e-001 	
        45.121	  6.060e-003 	             	
        45.146	             	  4.276e-001 	
        45.185	  6.090e-003 	             	
        45.209	             	  4.276e-001 	
        45.249	  6.140e-003 	             	
        45.274	             	  4.277e-001 	
        45.313	  6.170e-003 	             	
        45.370	             	  4.277e-001 	
        45.377	  6.150e-003 	             	
        45.434	             	  4.277e-001 	
        45.473	  6.140e-003 	             	
        45.498	             	  4.278e-001 	
        45.537	  6.170e-003 	             	
        45.561	             	  4.277e-001 	
        45.601	  6.170e-003 	             	
        45.626	             	  4.277e-001 	
        45.665	  6.280e-003 	             	
        45.689	             	  4.277e-001 	
        45.729	  6.300e-003 	             	
        45.753	             	  4.277e-001 	
        45.793	  6.310e-003 	             	
        45.818	             	  4.277e-001 	
        45.857	  6.290e-003 	             	
        45.881	             	  4.277e-001 	
        45.921	  6.300e-003 	             	
        45.945	             	  4.278e-001 	
        45.985	  6.310e-003 	             	
        46.009	             	  4.278e-001 	
        46.049	  6.320e-003 	             	
        46.073	             	  4.278e-001 	
        46.113	  6.320e-003 	             	
        46.138	             	  4.278e-001 	
        46.177	  6.310e-003 	             	
        46.233	             	  4.279e-001 	
        46.273	  6.320e-003 	             	
        46.298	             	  4.280e-001 	
        46.337	  6.340e-003 	             	
        46.361	             	  4.279e-001 	
        46.401	  6.380e-003 	             	
        46.425	             	  4.279e-001 	
        46.465	  6.380e-003 	             	
        46.489	             	  4.279e-001 	
        46.529	  6.360e-003 	             	
        46.553	             	  4.280e-001 	
        46.593	  6.430e-003 	             	
        46.617	             	  4.279e-001 	
        46.657	  6.430e-003 	             	
        46.682	             	  4.279e-001 	
        46.721	  6.410e-003 	             	
        46.745	             	  4.279e-001 	
        46.785	  6.390e-003 	             	
        46.809	             	  4.279e-001 	
        46.849	  6.390e-003 	             	
        46.873	             	  4.278e-001 	
        46.913	  6.410e-003 	             	
        46.937	             	  4.278e-001 	
        46.977	  6.360e-003 	             	
        47.033	             	  4.278e-001 	
        47.073	  6.360e-003 	             	
        47.097	             	  4.278e-001 	
        47.137	  6.450e-003 	             	
        47.161	             	  4.278e-001 	
        47.201	  6.410e-003 	             	
        47.225	             	  4.278e-001 	
        47.265	  6.430e-003 	             	
        47.289	             	  4.279e-001 	
        47.329	  6.400e-003 	             	
        47.353	             	  4.279e-001 	
        47.393	  6.420e-003 	             	
        47.418	             	  4.280e-001 	
        47.457	  6.390e-003 	             	
        47.481	             	  4.280e-001 	
        47.521	  6.380e-003 	             	
        47.545	             	  4.281e-001 	
        47.585	  6.420e-003 	             	
        47.609	             	  4.281e-001 	
        47.649	  6.350e-003 	             	
        47.673	             	  4.281e-001 	
        47.713	  6.340e-003 	             	
        47.737	             	  4.282e-001 	
        47.777	  6.340e-003 	             	
        47.833	             	  4.282e-001 	
        47.873	  6.320e-003 	             	
        47.897	             	  4.283e-001 	
        47.937	  6.310e-003 	             	
        47.961	             	  4.282e-001 	
        48.001	  6.340e-003 	             	
        48.025	             	  4.282e-001 	
        48.065	  6.300e-003 	             	
        48.089	             	  4.282e-001 	
        48.129	  6.330e-003 	             	
        48.153	             	  4.282e-001 	
        48.193	  6.330e-003 	             	
        48.217	             	  4.281e-001 	
        48.257	  6.380e-003 	             	
        48.281	             	  4.280e-001 	
        48.321	  6.360e-003 	             	
        48.345	             	  4.279e-001 	
        48.385	  6.400e-003 	             	
        48.409	             	  4.279e-001 	
        48.449	  6.360e-003 	             	
        48.473	             	  4.279e-001 	
        48.513	  6.300e-003 	             	
        48.569	             	  4.279e-001 	
        48.577	  6.340e-003 	             	
        48.633	             	  4.279e-001 	
        48.673	  6.370e-003 	             	
        48.697	             	  4.279e-001 	
        48.736	  6.330e-003 	             	
        48.761	             	  4.279e-001 	
        48.801	  6.310e-003 	             	
        48.825	             	  4.279e-001 	
        48.865	  6.320e-003 	             	
        48.889	             	  4.279e-001 	
        48.928	  6.320e-003 	             	
        48.953	             	  4.279e-001 	
        48.993	  6.300e-003 	             	
        49.017	             	  4.279e-001 	
        49.057	  6.280e-003 	             	
        49.081	             	  4.277e-001 	
        49.121	  6.350e-003 	             	
        49.145	             	  4.276e-001 	
        49.185	  6.330e-003 	             	
        49.209	             	  4.276e-001 	
        49.249	  6.380e-003 	             	
        49.273	             	  4.275e-001 	
        49.313	  6.400e-003 	             	
        49.337	             	  4.275e-001 	
        49.376	  6.400e-003 	             	
        49.433	             	  4.275e-001 	
        49.473	  6.440e-003 	             	
        49.497	             	  4.276e-001 	
        49.537	  6.400e-003 	             	
        49.561	             	  4.277e-001 	
        49.600	  6.440e-003 	             	
        49.625	             	  4.278e-001 	
        49.664	  6.400e-003 	             	
        49.689	             	  4.279e-001 	
        49.728	  6.450e-003 	             	
        49.753	             	  4.280e-001 	
        49.792	  6.450e-003 	             	
        49.817	             	  4.280e-001 	
        49.857	  6.450e-003 	             	
        49.881	             	  4.279e-001 	
        49.921	  6.440e-003 	             	
        49.945	             	  4.279e-001 	
        49.985	  6.480e-003 	             	
        50.009	             	  4.278e-001 	
        50.048	  6.490e-003 	             	
        50.073	             	  4.278e-001 	
        50.112	  6.480e-003 	             	
        50.137	             	  4.278e-001 	
        50.176	  6.480e-003 	             	
        50.233	             	  4.279e-001 	
        50.272	  6.510e-003 	             	
        50.297	             	  4.279e-001 	
        50.336	  6.550e-003 	             	
        50.361	             	  4.279e-001 	
        50.400	  6.530e-003 	             	
        50.425	             	  4.280e-001 	
        50.464	  6.540e-003 	             	
        50.489	             	  4.279e-001 	
        50.528	  6.540e-003 	             	
        50.553	             	  4.279e-001 	
        50.592	  6.570e-003 	             	
        50.617	             	  4.279e-001 	
        50.656	  6.470e-003 	             	
        50.681	             	  4.280e-001 	
        50.720	  6.480e-003 	             	
        50.745	             	  4.280e-001 	
        50.784	  6.540e-003 	             	
        50.809	             	  4.280e-001 	
        50.848	  6.500e-003 	             	
        50.873	             	  4.280e-001 	
        50.912	  6.570e-003 	             	
        50.937	             	  4.279e-001 	
        50.976	  6.570e-003 	             	
        51.033	             	  4.279e-001 	
        51.072	  6.580e-003 	             	
        51.097	             	  4.279e-001 	
        51.136	  6.630e-003 	             	
        51.161	             	  4.280e-001 	
        51.200	  6.620e-003 	             	
        51.225	             	  4.280e-001 	
        51.264	  6.650e-003 	             	
        51.289	             	  4.280e-001 	
        51.328	  6.610e-003 	             	
        51.353	             	  4.280e-001 	
        51.392	  6.600e-003 	             	
        51.417	             	  4.280e-001 	
        51.456	  6.500e-003 	             	
        51.481	             	  4.280e-001 	
        51.520	  6.530e-003 	             	
        51.545	             	  4.281e-001 	
        51.584	  6.590e-003 	             	
        51.609	             	  4.281e-001 	
        51.648	  6.610e-003 	             	
        51.673	             	  4.280e-001 	
        51.712	  6.650e-003 	             	
        51.737	             	  4.280e-001 	
        51.776	  6.650e-003 	             	
        51.833	             	  4.279e-001 	
        51.872	  6.640e-003 	             	
        51.897	             	  4.279e-001 	
        51.936	  6.710e-003 	             	
        51.961	             	  4.280e-001 	
        52.000	  6.720e-003 	             	
        52.026	             	  4.280e-001 	
        52.064	  6.760e-003 	             	
        52.089	             	  4.281e-001 	
        52.128	  6.730e-003 	             	
        52.153	             	  4.281e-001 	
        52.192	  6.780e-003 	             	
        52.217	             	  4.282e-001 	
        52.256	  6.750e-003 	             	
        52.281	             	  4.282e-001 	
        52.320	  6.760e-003 	             	
        52.345	             	  4.282e-001 	
        52.384	  6.800e-003 	             	
        52.409	             	  4.281e-001 	
        52.448	  6.850e-003 	             	
        52.473	             	  4.281e-001 	
        52.512	  6.820e-003 	             	
        52.537	             	  4.280e-001 	
        52.576	  6.820e-003 	             	
        52.633	             	  4.279e-001 	
        52.672	  6.800e-003 	             	
        52.697	             	  4.279e-001 	
        52.736	  6.790e-003 	             	
        52.761	             	  4.278e-001 	
        52.800	  6.870e-003 	             	
        52.825	             	  4.277e-001 	
        52.864	  6.900e-003 	             	
        52.889	             	  4.277e-001 	
        52.928	  6.850e-003 	             	
        52.953	             	  4.278e-001 	
        52.992	  6.830e-003 	             	
        53.017	             	  4.278e-001 	
        53.056	  6.890e-003 	             	
        53.081	             	  4.279e-001 	
        53.120	  6.870e-003 	             	
        53.145	             	  4.279e-001 	
        53.184	  6.870e-003 	             	
        53.209	             	  4.279e-001 	
        53.248	  6.880e-003 	             	
        53.273	             	  4.279e-001 	
        53.312	  6.880e-003 	             	
        53.337	             	  4.278e-001 	
        53.376	  6.890e-003 	             	
        53.433	             	  4.278e-001 	
        53.472	  6.850e-003 	             	
        53.497	             	  4.279e-001 	
        53.536	  6.880e-003 	             	
        53.561	             	  4.278e-001 	
        53.600	  6.860e-003 	             	
        53.625	             	  4.279e-001 	
        53.664	  6.900e-003 	             	
        53.689	             	  4.279e-001 	
        53.728	  6.880e-003 	             	
        53.753	             	  4.280e-001 	
        53.792	  6.940e-003 	             	
        53.818	             	  4.281e-001 	
        53.857	  6.900e-003 	             	
        53.882	             	  4.281e-001 	
        53.921	  6.890e-003 	             	
        53.946	             	  4.282e-001 	
        53.985	  6.910e-003 	             	
        54.010	             	  4.283e-001 	
        54.049	  6.870e-003 	             	
        54.074	             	  4.284e-001 	
        54.113	  6.930e-003 	             	
        54.138	             	  4.283e-001 	
        54.177	  6.940e-003 	             	
        54.234	             	  4.283e-001 	
        54.273	  6.890e-003 	             	
        54.298	             	  4.282e-001 	
        54.337	  6.900e-003 	             	
        54.362	             	  4.280e-001 	
        54.401	  6.960e-003 	             	
        54.426	             	  4.278e-001 	
        54.465	  6.960e-003 	             	
        54.490	             	  4.277e-001 	
        54.529	  6.950e-003 	             	
        54.554	             	  4.277e-001 	
        54.593	  6.980e-003 	             	
        54.618	             	  4.277e-001 	
        54.657	  6.960e-003 	             	
        54.682	             	  4.277e-001 	
        54.721	  7.000e-003 	             	
        54.746	             	  4.278e-001 	
        54.785	  7.010e-003 	             	
        54.810	             	  4.278e-001 	
        54.849	  6.960e-003 	             	
        54.874	             	  4.278e-001 	
        54.913	  6.980e-003 	             	
        54.938	             	  4.279e-001 	
        54.977	  7.000e-003 	             	
        55.034	             	  4.280e-001 	
        55.073	  7.070e-003 	             	
        55.098	             	  4.280e-001 	
        55.137	  7.060e-003 	             	
        55.162	             	  4.281e-001 	
        55.201	  6.930e-003 	             	
        55.226	             	  4.281e-001 	
        55.265	  7.080e-003 	             	
        55.290	             	  4.281e-001 	
        55.329	  7.010e-003 	             	
        55.354	             	  4.281e-001 	
        55.393	  7.090e-003 	             	
        55.418	             	  4.281e-001 	
        55.457	  7.020e-003 	             	
        55.482	             	  4.280e-001 	
        55.521	  7.130e-003 	             	
        55.546	             	  4.280e-001 	
        55.585	  7.110e-003 	             	
        55.610	             	  4.280e-001 	
        55.649	  7.080e-003 	             	
        55.674	             	  4.280e-001 	
        55.713	  7.090e-003 	             	
        55.738	             	  4.281e-001 	
        55.777	  7.070e-003 	             	
        55.834	             	  4.281e-001 	
        55.873	  7.250e-003 	             	
        55.898	             	  4.280e-001 	
        55.937	  7.120e-003 	             	
        55.962	             	  4.280e-001 	
        56.001	  7.160e-003 	             	
        56.026	             	  4.281e-001 	
        56.065	  7.200e-003 	             	
        56.090	             	  4.280e-001 	
        56.129	  7.220e-003 	             	
        56.154	             	  4.281e-001 	
        56.193	  7.290e-003 	             	
        56.218	             	  4.282e-001 	
        56.257	  7.250e-003 	             	
        56.282	             	  4.283e-001 	
        56.321	  7.270e-003 	             	
        56.346	             	  4.285e-001 	
        56.385	  7.270e-003 	             	
        56.410	             	  4.285e-001 	
        56.449	  7.380e-003 	             	
        56.474	             	  4.285e-001 	
        56.513	  7.290e-003 	             	
        56.538	             	  4.285e-001 	
        56.577	  7.310e-003 	             	
        56.634	             	  4.284e-001 	
        56.673	  7.360e-003 	             	
        56.698	             	  4.285e-001 	
        56.737	  7.360e-003 	             	
        56.762	             	  4.285e-001 	
        56.801	  7.420e-003 	             	
        56.826	             	  4.286e-001 	
        56.865	  7.360e-003 	             	
        56.890	             	  4.286e-001 	
        56.929	  7.400e-003 	             	
        56.954	             	  4.286e-001 	
        56.993	  7.420e-003 	             	
        57.018	             	  4.286e-001 	
        57.057	  7.370e-003 	             	
        57.082	             	  4.285e-001 	
        57.121	  7.180e-003 	             	
        57.146	             	  4.284e-001 	
        57.185	  7.090e-003 	             	
        57.210	             	  4.283e-001 	
        57.249	  7.150e-003 	             	
        57.274	             	  4.282e-001 	
        57.313	  7.170e-003 	             	
        57.338	             	  4.281e-001 	
        57.377	  7.200e-003 	             	
        57.434	             	  4.281e-001 	
        57.473	  7.280e-003 	             	
        57.498	             	  4.282e-001 	
        57.537	  7.300e-003 	             	
        57.562	             	  4.282e-001 	
        57.601	  7.350e-003 	             	
        57.626	             	  4.282e-001 	
        57.665	  7.380e-003 	             	
        57.690	             	  4.282e-001 	
        57.729	  7.430e-003 	             	
        57.754	             	  4.282e-001 	
        57.793	  7.480e-003 	             	
        57.818	             	  4.281e-001 	
        57.857	  7.530e-003 	             	
        57.882	             	  4.281e-001 	
        57.921	  7.610e-003 	             	
        57.946	             	  4.281e-001 	
        57.985	  7.590e-003 	             	
        58.010	             	  4.281e-001 	
        58.049	  7.630e-003 	             	
        58.074	             	  4.281e-001 	
        58.113	  7.630e-003 	             	
        58.138	             	  4.282e-001 	
        58.177	  7.670e-003 	             	
        58.234	             	  4.281e-001 	
        58.241	  7.750e-003 	             	
        58.298	             	  4.282e-001 	
        58.337	  7.760e-003 	             	
        58.362	             	  4.282e-001 	
        58.401	  7.790e-003 	             	
        58.426	             	  4.282e-001 	
        58.465	  7.840e-003 	             	
        58.490	             	  4.283e-001 	
        58.529	  7.850e-003 	             	
        58.554	             	  4.284e-001 	
        58.593	  7.900e-003 	             	
        58.618	             	  4.285e-001 	
        58.657	  7.960e-003 	             	
        58.682	             	  4.286e-001 	
        58.721	  8.010e-003 	             	
        58.746	             	  4.286e-001 	
        58.785	  7.930e-003 	             	
        58.810	             	  4.287e-001 	
        58.849	  7.960e-003 	             	
        58.874	             	  4.287e-001 	
        58.913	  7.970e-003 	             	
        58.938	             	  4.286e-001 	
        58.977	  8.030e-003 	             	
        59.002	             	  4.286e-001 	
        59.041	  8.020e-003 	             	
        59.098	             	  4.285e-001 	
        59.137	  8.040e-003 	             	
        59.162	             	  4.284e-001 	
        59.201	  8.060e-003 	             	
        59.226	             	  4.283e-001 	
        59.265	  8.050e-003 	             	
        59.290	             	  4.282e-001 	
        59.329	  8.060e-003 	             	
        59.354	             	  4.281e-001 	
        59.393	  8.060e-003 	             	
        59.418	             	  4.281e-001 	
        59.457	  8.110e-003 	             	
        59.482	             	  4.281e-001 	
        59.521	  8.140e-003 	             	
        59.546	             	  4.280e-001 	
        59.585	  8.120e-003 	             	
        59.610	             	  4.279e-001 	
        59.649	  8.150e-003 	             	
        59.674	             	  4.279e-001 	
        59.713	  8.130e-003 	             	
        59.738	             	  4.279e-001 	
        59.777	  8.210e-003 	             	
        59.802	             	  4.279e-001 	
        59.841	  8.160e-003 	             	
        59.898	             	  4.280e-001 	
        59.937	  8.250e-003 	             	
        59.962	             	  4.280e-001 	
        60.001	  8.230e-003 	             	
        60.026	             	  4.281e-001 	
        60.065	  8.240e-003 	             	
        60.090	             	  4.281e-001 	
        60.129	  8.210e-003 	             	
        60.154	             	  4.282e-001 	
        60.193	  8.210e-003 	             	
        60.218	             	  4.283e-001 	
        60.257	  8.310e-003 	             	
        60.282	             	  4.283e-001 	
        60.321	  8.270e-003 	             	
        60.346	             	  4.282e-001 	
        60.385	  8.240e-003 	             	
        60.410	             	  4.282e-001 	
        60.449	  8.230e-003 	             	
        60.474	             	  4.282e-001 	
        60.513	  8.270e-003 	             	
        60.538	             	  4.281e-001 	
        60.577	  8.360e-003 	             	
        60.602	             	  4.281e-001 	
        60.641	  8.320e-003 	             	
        60.698	             	  4.281e-001 	
        60.737	  8.290e-003 	             	
        60.762	             	  4.281e-001 	
        60.801	  8.320e-003 	             	
        60.826	             	  4.281e-001 	
        60.865	  8.360e-003 	             	
        60.890	             	  4.282e-001 	
        60.929	  8.380e-003 	             	
        60.954	             	  4.282e-001 	
        60.993	  8.350e-003 	             	
        61.018	             	  4.283e-001 	
        61.057	  8.370e-003 	             	
        61.082	             	  4.283e-001 	
        61.121	  8.270e-003 	             	
        61.146	             	  4.284e-001 	
        61.185	  8.370e-003 	             	
        61.210	             	  4.285e-001 	
        61.249	  8.230e-003 	             	
        61.274	             	  4.285e-001 	
        61.313	  8.150e-003 	             	
        61.338	             	  4.286e-001 	
        61.377	  8.190e-003 	             	
        61.402	             	  4.285e-001 	
        61.441	  8.270e-003 	             	
        61.498	             	  4.284e-001 	
        61.537	  8.320e-003 	             	
        61.562	             	  4.284e-001 	
        61.601	  8.410e-003 	             	
        61.626	             	  4.284e-001 	
        61.665	  8.340e-003 	             	
        61.690	             	  4.284e-001 	
        61.729	  8.280e-003 	             	
        61.754	             	  4.284e-001 	
        61.793	  8.240e-003 	             	
        61.818	             	  4.286e-001 	
        61.857	  8.300e-003 	             	
        61.882	             	  4.287e-001 	
        61.921	  8.360e-003 	             	
        61.946	             	  4.287e-001 	
        61.985	  8.190e-003 	             	
        62.010	             	  4.287e-001 	
        62.049	  8.260e-003 	             	
        62.074	             	  4.287e-001 	
        62.113	  8.260e-003 	             	
        62.138	             	  4.287e-001 	
        62.177	  8.290e-003 	             	
        62.202	             	  4.286e-001 	
        62.241	  8.290e-003 	             	
        62.298	             	  4.286e-001 	
        62.337	  8.280e-003 	             	
        62.361	             	  4.286e-001 	
        62.401	  8.310e-003 	             	
        62.426	             	  4.285e-001 	
        62.465	  8.240e-003 	             	
        62.490	             	  4.285e-001 	
        62.529	  8.270e-003 	             	
        62.554	             	  4.284e-001 	
        62.593	  8.300e-003 	             	
        62.618	             	  4.284e-001 	
        62.657	  8.240e-003 	             	
        62.681	             	  4.284e-001 	
        62.721	  8.280e-003 	             	
        62.746	             	  4.284e-001 	
        62.785	  8.260e-003 	             	
        62.809	             	  4.284e-001 	
        62.849	  8.200e-003 	             	
        62.873	             	  4.283e-001 	
        62.913	  8.230e-003 	             	
        62.937	             	  4.283e-001 	
        62.977	  8.220e-003 	             	
        63.002	             	  4.283e-001 	
        63.041	  8.240e-003 	             	
        63.098	             	  4.283e-001 	
        63.137	  8.220e-003 	             	
        63.161	             	  4.282e-001 	
        63.201	  8.350e-003 	             	
        63.225	             	  4.282e-001 	
        63.265	  8.260e-003 	             	
        63.289	             	  4.282e-001 	
        63.329	  8.310e-003 	             	
        63.353	             	  4.281e-001 	
        63.393	  8.310e-003 	             	
        63.417	             	  4.281e-001 	
        63.457	  8.290e-003 	             	
        63.481	             	  4.281e-001 	
        63.521	  8.290e-003 	             	
        63.546	             	  4.281e-001 	
        63.585	  8.240e-003 	             	
        63.609	             	  4.281e-001 	
        63.649	  8.320e-003 	             	
        63.673	             	  4.282e-001 	
        63.713	  8.290e-003 	             	
        63.737	             	  4.282e-001 	
        63.777	  8.220e-003 	             	
        63.801	             	  4.283e-001 	
        63.841	  8.200e-003 	             	
        63.898	             	  4.283e-001 	
        63.937	  8.180e-003 	             	
        63.961	             	  4.283e-001 	
        64.001	  8.180e-003 	             	
        64.025	             	  4.283e-001 	
        64.065	  8.180e-003 	             	
        64.089	             	  4.283e-001 	
        64.129	  8.120e-003 	             	
        64.153	             	  4.282e-001 	
        64.193	  8.110e-003 	             	
        64.217	             	  4.282e-001 	
        64.257	  8.130e-003 	             	
        64.281	             	  4.282e-001 	
        64.321	  8.100e-003 	             	
        64.345	             	  4.282e-001 	
        64.385	  8.040e-003 	             	
        64.409	             	  4.283e-001 	
        64.449	  8.050e-003 	             	
        64.473	             	  4.283e-001 	
        64.513	  8.050e-003 	             	
        64.537	             	  4.283e-001 	
        64.577	  7.950e-003 	             	
        64.601	             	  4.284e-001 	
        64.641	  7.960e-003 	             	
        64.697	             	  4.284e-001 	
        64.737	  7.940e-003 	             	
        64.761	             	  4.284e-001 	
        64.801	  7.870e-003 	             	
        64.825	             	  4.283e-001 	
        64.865	  7.900e-003 	             	
        64.889	             	  4.283e-001 	
        64.929	  7.890e-003 	             	
        64.953	             	  4.282e-001 	
        64.993	  7.820e-003 	             	
        65.017	             	  4.282e-001 	
        65.057	  7.830e-003 	             	
        65.081	             	  4.282e-001 	
        65.121	  7.840e-003 	             	
        65.145	             	  4.282e-001 	
        65.185	  7.770e-003 	             	
        65.209	             	  4.282e-001 	
        65.249	  7.740e-003 	             	
        65.273	             	  4.283e-001 	
        65.313	  7.710e-003 	             	
        65.337	             	  4.284e-001 	
        65.377	  7.710e-003 	             	
        65.401	             	  4.284e-001 	
        65.441	  7.650e-003 	             	
        65.497	             	  4.285e-001 	
        65.537	  7.620e-003 	             	
        65.561	             	  4.286e-001 	
        65.601	  7.580e-003 	             	
        65.625	             	  4.286e-001 	
        65.665	  7.540e-003 	             	
        65.689	             	  4.286e-001 	
        65.729	  7.530e-003 	             	
        65.753	             	  4.285e-001 	
        65.793	  7.440e-003 	             	
        65.817	             	  4.284e-001 	
        65.857	  7.430e-003 	             	
        65.881	             	  4.283e-001 	
        65.921	  7.390e-003 	             	
        65.945	             	  4.282e-001 	
        65.985	  7.360e-003 	             	
        66.009	             	  4.281e-001 	
        66.049	  7.340e-003 	             	
        66.073	             	  4.281e-001 	
        66.113	  7.300e-003 	             	
        66.137	             	  4.281e-001 	
        66.176	  7.250e-003 	             	
        66.201	             	  4.281e-001 	
        66.241	  7.220e-003 	             	
        66.297	             	  4.281e-001 	
        66.337	  7.170e-003 	             	
        66.361	             	  4.281e-001 	
        66.401	  7.110e-003 	             	
        66.425	             	  4.282e-001 	
        66.465	  7.100e-003 	             	
        66.489	             	  4.282e-001 	
        66.529	  7.050e-003 	             	
        66.553	             	  4.282e-001 	
        66.592	  7.020e-003 	             	
        66.617	             	  4.282e-001 	
        66.657	  6.940e-003 	             	
        66.681	             	  4.283e-001 	
        66.720	  6.930e-003 	             	
        66.745	             	  4.282e-001 	
        66.785	  6.850e-003 	             	
        66.809	             	  4.283e-001 	
        66.849	  6.790e-003 	             	
        66.873	             	  4.283e-001 	
        66.913	  6.800e-003 	             	
        66.937	             	  4.283e-001 	
        66.977	  6.760e-003 	             	
        67.001	             	  4.283e-001 	
        67.040	  6.670e-003 	             	
        67.097	             	  4.282e-001 	
        67.137	  6.680e-003 	             	
        67.161	             	  4.283e-001 	
        67.201	  6.650e-003 	             	
        67.225	             	  4.283e-001 	
        67.264	  6.580e-003 	             	
        67.289	             	  4.284e-001 	
        67.328	  6.570e-003 	             	
        67.353	             	  4.284e-001 	
        67.392	  6.540e-003 	             	
        67.417	             	  4.284e-001 	
        67.457	  6.450e-003 	             	
        67.481	             	  4.284e-001 	
        67.520	  6.390e-003 	             	
        67.545	             	  4.284e-001 	
        67.584	  6.350e-003 	             	
        67.609	             	  4.284e-001 	
        67.648	  6.310e-003 	             	
        67.673	             	  4.285e-001 	
        67.712	  6.300e-003 	             	
        67.737	             	  4.285e-001 	
        67.777	  6.250e-003 	             	
        67.801	             	  4.284e-001 	
        67.840	  6.220e-003 	             	
        67.897	             	  4.284e-001 	
        67.936	  6.210e-003 	             	
        67.961	             	  4.283e-001 	
        68.001	  6.180e-003 	             	
        68.025	             	  4.283e-001 	
        68.064	  6.150e-003 	             	
        68.089	             	  4.283e-001 	
        68.128	  6.100e-003 	             	
        68.153	             	  4.284e-001 	
        68.193	  6.040e-003 	             	
        68.217	             	  4.284e-001 	
        68.256	  6.070e-003 	             	
        68.281	             	  4.283e-001 	
        68.320	  6.000e-003 	             	
        68.345	             	  4.283e-001 	
        68.385	  6.000e-003 	             	
        68.409	             	  4.283e-001 	
        68.448	  5.960e-003 	             	
        68.473	             	  4.283e-001 	
        68.512	  5.940e-003 	             	
        68.537	             	  4.284e-001 	
        68.576	  5.890e-003 	             	
        68.601	             	  4.284e-001 	
        68.640	  5.870e-003 	             	
        68.697	             	  4.284e-001 	
        68.736	  5.850e-003 	             	
        68.761	             	  4.284e-001 	
        68.800	  5.820e-003 	             	
        68.825	             	  4.284e-001 	
        68.864	  5.820e-003 	             	
        68.889	             	  4.283e-001 	
        68.928	  5.790e-003 	             	
        68.953	             	  4.283e-001 	
        68.992	  5.750e-003 	             	
        69.017	             	  4.283e-001 	
        69.056	  5.750e-003 	             	
        69.081	             	  4.283e-001 	
        69.120	  5.710e-003 	             	
        69.145	             	  4.284e-001 	
        69.184	  5.680e-003 	             	
        69.209	             	  4.284e-001 	
        69.248	  5.640e-003 	             	
        69.273	             	  4.284e-001 	
        69.312	  5.610e-003 	             	
        69.337	             	  4.284e-001 	
        69.376	  5.610e-003 	             	
        69.401	             	  4.283e-001 	
        69.440	  5.600e-003 	             	
        69.497	             	  4.283e-001 	
        69.536	  5.570e-003 	             	
        69.561	             	  4.282e-001 	
        69.600	  5.560e-003 	             	
        69.625	             	  4.281e-001 	
        69.664	  5.540e-003 	             	
        69.689	             	  4.280e-001 	
        69.728	  5.500e-003 	             	
        69.753	             	  4.279e-001 	
        69.792	  5.480e-003 	             	
        69.817	             	  4.279e-001 	
        69.856	  5.510e-003 	             	
        69.881	             	  4.279e-001 	
        69.920	  5.460e-003 	             	
        69.945	             	  4.279e-001 	
        69.984	  5.470e-003 	             	
        70.009	             	  4.279e-001 	
        70.048	  5.440e-003 	             	
        70.073	             	  4.279e-001 	
        70.112	  5.420e-003 	             	
        70.137	             	  4.279e-001 	
        70.176	  5.400e-003 	             	
        70.201	             	  4.279e-001 	
        70.240	  5.360e-003 	             	
        70.297	             	  4.278e-001 	
        70.304	  5.360e-003 	             	
        70.361	             	  4.278e-001 	
        70.400	  5.340e-003 	             	
        70.425	             	  4.278e-001 	
        70.464	  5.310e-003 	             	
        70.489	             	  4.279e-001 	
        70.528	  5.290e-003 	             	
        70.553	             	  4.279e-001 	
        70.592	  5.240e-003 	             	
        70.617	             	  4.280e-001 	
        70.656	  5.220e-003 	             	
        70.681	             	  4.280e-001 	
        70.720	  5.210e-003 	             	
        70.745	             	  4.280e-001 	
        70.784	  5.190e-003 	             	
        70.809	             	  4.279e-001 	
        70.848	  5.170e-003 	             	
        70.873	             	  4.280e-001 	
        70.912	  5.160e-003 	             	
        70.937	             	  4.280e-001 	
        70.976	  5.120e-003 	             	
        71.001	             	  4.279e-001 	
        71.040	  5.100e-003 	             	
        71.065	             	  4.279e-001 	
        71.136	  5.060e-003 	             	
        71.161	             	  4.280e-001 	
        71.200	  5.050e-003 	             	
        71.225	             	  4.280e-001 	
        71.264	  5.000e-003 	             	
        71.290	             	  4.280e-001 	
        71.329	  4.990e-003 	             	
        71.354	             	  4.280e-001 	
        71.393	  4.960e-003 	             	
        71.418	             	  4.279e-001 	
        71.457	  4.940e-003 	             	
        71.482	             	  4.279e-001 	
        71.521	  4.920e-003 	             	
        71.546	             	  4.279e-001 	
        71.585	  4.890e-003 	             	
        71.610	             	  4.279e-001 	
        71.649	  4.870e-003 	             	
        71.674	             	  4.279e-001 	
        71.713	  4.820e-003 	             	
        71.738	             	  4.279e-001 	
        71.777	  4.790e-003 	             	
        71.802	             	  4.279e-001 	
        71.841	  4.750e-003 	             	
        71.898	             	  4.280e-001 	
        71.905	  4.720e-003 	             	
        71.962	             	  4.280e-001 	
        72.001	  4.690e-003 	             	
        72.026	             	  4.280e-001 	
        72.065	  4.660e-003 	             	
        72.090	             	  4.279e-001 	
        72.129	  4.660e-003 	             	
        72.154	             	  4.279e-001 	
        72.193	  4.590e-003 	             	
        72.218	             	  4.279e-001 	
        72.257	  4.540e-003 	             	
        72.282	             	  4.279e-001 	
        72.321	  4.560e-003 	             	
        72.346	             	  4.280e-001 	
        72.385	  4.510e-003 	             	
        72.410	             	  4.279e-001 	
        72.449	  4.490e-003 	             	
        72.474	             	  4.279e-001 	
        72.513	  4.430e-003 	             	
        72.538	             	  4.279e-001 	
        72.577	  4.400e-003 	             	
        72.602	             	  4.279e-001 	
        72.641	  4.370e-003 	             	
        72.666	             	  4.279e-001 	
        72.705	  4.380e-003 	             	
        72.762	             	  4.279e-001 	
        72.801	  4.350e-003 	             	
        72.826	             	  4.279e-001 	
        72.865	  4.330e-003 	             	
        72.890	             	  4.279e-001 	
        72.929	  4.310e-003 	             	
        72.954	             	  4.279e-001 	
        72.993	  4.300e-003 	             	
        73.018	             	  4.278e-001 	
        73.057	  4.290e-003 	             	
        73.082	             	  4.278e-001 	
        73.121	  4.270e-003 	             	
        73.146	             	  4.278e-001 	
        73.185	  4.250e-003 	             	
        73.210	             	  4.278e-001 	
        73.249	  4.240e-003 	             	
        73.274	             	  4.279e-001 	
        73.313	  4.220e-003 	             	
        73.338	             	  4.279e-001 	
        73.377	  4.220e-003 	             	
        73.402	             	  4.279e-001 	
        73.441	  4.210e-003 	             	
        73.466	             	  4.278e-001 	
        73.505	  4.190e-003 	             	
        73.562	             	  4.279e-001 	
        73.601	  4.140e-003 	             	
        73.626	             	  4.279e-001 	
        73.665	  4.150e-003 	             	
        73.690	             	  4.280e-001 	
        73.729	  4.120e-003 	             	
        73.754	             	  4.281e-001 	
        73.793	  4.110e-003 	             	
        73.818	             	  4.280e-001 	
        73.857	  4.100e-003 	             	
        73.882	             	  4.280e-001 	
        73.921	  4.080e-003 	             	
        73.946	             	  4.280e-001 	
        73.985	  4.090e-003 	             	
        74.010	             	  4.281e-001 	
        74.049	  4.050e-003 	             	
        74.074	             	  4.281e-001 	
        74.113	  4.030e-003 	             	
        74.138	             	  4.281e-001 	
        74.177	  4.020e-003 	             	
        74.202	             	  4.280e-001 	
        74.241	  4.020e-003 	             	
        74.266	             	  4.280e-001 	
        74.305	  4.000e-003 	             	
        74.362	             	  4.279e-001 	
        74.401	  3.990e-003 	             	
        74.426	             	  4.279e-001 	
        74.465	  3.970e-003 	             	
        74.490	             	  4.279e-001 	
        74.529	  3.950e-003 	             	
        74.554	             	  4.279e-001 	
        74.593	  3.960e-003 	             	
        74.618	             	  4.279e-001 	
        74.657	  3.950e-003 	             	
        74.682	             	  4.280e-001 	
        74.721	  3.860e-003 	             	
        74.746	             	  4.280e-001 	
        74.785	  3.830e-003 	             	
        74.810	             	  4.280e-001 	
        74.849	  3.700e-003 	             	
        74.874	             	  4.279e-001 	
        74.913	  3.380e-003 	             	
        74.938	             	  4.280e-001 	
        74.977	  3.440e-003 	             	
        75.002	             	  4.281e-001 	
        75.041	  3.350e-003 	             	
        75.066	             	  4.281e-001 	
        75.105	  3.320e-003 	             	
        75.162	             	  4.282e-001 	
        75.201	  3.370e-003 	             	
        75.226	             	  4.283e-001 	
        75.265	  3.320e-003 	             	
        75.290	             	  4.283e-001 	
        75.329	  3.440e-003 	             	
        75.354	             	  4.283e-001 	
        75.393	  3.420e-003 	             	
        75.418	             	  4.282e-001 	
        75.457	  3.420e-003 	             	
        75.482	             	  4.281e-001 	
        75.521	  3.430e-003 	             	
        75.546	             	  4.280e-001 	
        75.585	  3.230e-003 	             	
        75.610	             	  4.279e-001 	
        75.649	  3.080e-003 	             	
        75.674	             	  4.279e-001 	
        75.713	  3.220e-003 	             	
        75.738	             	  4.278e-001 	
        75.777	  3.220e-003 	             	
        75.802	             	  4.277e-001 	
        75.841	  3.150e-003 	             	
        75.866	             	  4.277e-001 	
        75.905	  3.090e-003 	             	
        75.962	             	  4.276e-001 	
        76.001	  3.130e-003 	             	
        76.026	             	  4.276e-001 	
        76.065	  3.040e-003 	             	
        76.090	             	  4.277e-001 	
        76.129	  3.050e-003 	             	
        76.154	             	  4.277e-001 	
        76.193	  3.000e-003 	             	
        76.218	             	  4.278e-001 	
        76.257	  3.000e-003 	             	
        76.282	             	  4.279e-001 	
        76.321	  3.010e-003 	             	
        76.346	             	  4.279e-001 	
        76.385	  3.080e-003 	             	
        76.410	             	  4.280e-001 	
        76.449	  3.100e-003 	             	
        76.474	             	  4.279e-001 	
        76.513	  3.110e-003 	             	
        76.538	             	  4.279e-001 	
        76.577	  3.130e-003 	             	
        76.602	             	  4.278e-001 	
        76.641	  3.170e-003 	             	
        76.666	             	  4.278e-001 	
        76.705	  3.270e-003 	             	
        76.762	             	  4.278e-001 	
        76.801	  3.370e-003 	             	
        76.826	             	  4.279e-001 	
        76.865	  3.470e-003 	             	
        76.890	             	  4.279e-001 	
        76.929	  3.580e-003 	             	
        76.954	             	  4.279e-001 	
        76.993	  3.730e-003 	             	
        77.018	             	  4.279e-001 	
        77.057	  3.790e-003 	             	
        77.082	             	  4.278e-001 	
        77.121	  3.640e-003 	             	
        77.146	             	  4.278e-001 	
        77.185	  3.720e-003 	             	
        77.210	             	  4.278e-001 	
        77.249	  3.660e-003 	             	
        77.274	             	  4.279e-001 	
        77.313	  3.430e-003 	             	
        77.338	             	  4.279e-001 	
        77.377	  3.210e-003 	             	
        77.402	             	  4.279e-001 	
        77.441	  3.210e-003 	             	
        77.466	             	  4.279e-001 	
        77.505	  3.370e-003 	             	
        77.562	             	  4.279e-001 	
        77.601	  3.420e-003 	             	
        77.626	             	  4.280e-001 	
        77.665	  3.400e-003 	             	
        77.690	             	  4.280e-001 	
        77.729	  3.460e-003 	             	
        77.754	             	  4.280e-001 	
        77.793	  3.570e-003 	             	
        77.818	             	  4.280e-001 	
        77.857	  2.800e-003 	             	
        77.882	             	  4.280e-001 	
        77.921	  3.440e-003 	             	
        77.946	             	  4.280e-001 	
        77.985	  3.670e-003 	             	
        78.010	             	  4.280e-001 	
        78.049	  3.770e-003 	             	
        78.074	             	  4.280e-001 	
        78.113	  3.840e-003 	             	
        78.138	             	  4.279e-001 	
        78.177	  3.850e-003 	             	
        78.202	             	  4.278e-001 	
        78.241	  3.890e-003 	             	
        78.266	             	  4.278e-001 	
        78.305	  3.950e-003 	             	
        78.362	             	  4.278e-001 	
        78.401	  3.950e-003 	             	
        78.426	             	  4.279e-001 	
        78.465	  3.930e-003 	             	
        78.490	             	  4.279e-001 	
        78.529	  3.930e-003 	             	
        78.554	             	  4.279e-001 	
        78.593	  3.890e-003 	             	
        78.618	             	  4.279e-001 	
        78.657	  3.890e-003 	             	
        78.682	             	  4.279e-001 	
        78.721	  3.830e-003 	             	
        78.746	             	  4.279e-001 	
        78.785	  3.780e-003 	             	
        78.810	             	  4.279e-001 	
        78.849	  3.770e-003 	             	
        78.874	             	  4.279e-001 	
        78.913	  3.770e-003 	             	
        78.938	             	  4.278e-001 	
        78.977	  3.770e-003 	             	
        79.002	             	  4.277e-001 	
        79.041	  3.810e-003 	             	
        79.066	             	  4.277e-001 	
        79.105	  3.820e-003 	             	
        79.162	             	  4.278e-001 	
        79.201	  3.810e-003 	             	
        79.226	             	  4.278e-001 	
        79.265	  3.830e-003 	             	
        79.290	             	  4.278e-001 	
        79.329	  3.860e-003 	             	
        79.354	             	  4.278e-001 	
        79.393	  3.870e-003 	             	
        79.417	             	  4.279e-001 	
        79.457	  3.870e-003 	             	
        79.482	             	  4.279e-001 	
        79.521	  3.880e-003 	             	
        79.546	             	  4.280e-001 	
        79.585	  3.880e-003 	             	
        79.610	             	  4.280e-001 	
        79.649	  3.900e-003 	             	
        79.674	             	  4.280e-001 	
        79.713	  3.870e-003 	             	
        79.738	             	  4.280e-001 	
        79.777	  3.890e-003 	             	
        79.802	             	  4.280e-001 	
        79.841	  3.910e-003 	             	
        79.866	             	  4.280e-001 	
        79.905	  3.930e-003 	             	
        79.962	             	  4.279e-001 	
        80.001	  3.940e-003 	             	
        80.025	             	  4.279e-001 	
        80.065	  3.940e-003 	             	
        80.090	             	  4.279e-001 	
        80.129	  3.960e-003 	             	
        80.154	             	  4.279e-001 	
        80.193	  3.970e-003 	             	
        80.217	             	  4.278e-001 	
        80.257	  3.990e-003 	             	
        80.281	             	  4.277e-001 	
        80.321	  4.010e-003 	             	
        80.345	             	  4.277e-001 	
        80.385	  4.030e-003 	             	
        80.409	             	  4.278e-001 	
        80.449	  4.030e-003 	             	
        80.474	             	  4.280e-001 	
        80.513	  4.030e-003 	             	
        80.538	             	  4.280e-001 	
        80.577	  4.040e-003 	             	
        80.601	             	  4.280e-001 	
        80.641	  4.040e-003 	             	
        80.665	             	  4.280e-001 	
        80.705	  4.050e-003 	             	
        80.761	             	  4.280e-001 	
        80.801	  4.030e-003 	             	
        80.825	             	  4.279e-001 	
        80.865	  4.000e-003 	             	
        80.889	             	  4.279e-001 	
        80.929	  4.020e-003 	             	
        80.953	             	  4.279e-001 	
        80.993	  4.020e-003 	             	
        81.017	             	  4.278e-001 	
        81.057	  4.030e-003 	             	
        81.081	             	  4.278e-001 	
        81.121	  4.050e-003 	             	
        81.145	             	  4.278e-001 	
        81.185	  4.060e-003 	             	
        81.209	             	  4.278e-001 	
        81.249	  4.050e-003 	             	
        81.273	             	  4.279e-001 	
        81.313	  4.070e-003 	             	
        81.337	             	  4.279e-001 	
        81.377	  4.060e-003 	             	
        81.402	             	  4.280e-001 	
        81.441	  4.080e-003 	             	
        81.465	             	  4.280e-001 	
        81.505	  4.060e-003 	             	
        81.562	             	  4.280e-001 	
        81.601	  4.070e-003 	             	
        81.625	             	  4.279e-001 	
        81.665	  4.080e-003 	             	
        81.689	             	  4.280e-001 	
        81.729	  4.100e-003 	             	
        81.753	             	  4.280e-001 	
        81.793	  4.080e-003 	             	
        81.817	             	  4.280e-001 	
        81.857	  4.120e-003 	             	
        81.881	             	  4.280e-001 	
        81.921	  4.130e-003 	             	
        81.945	             	  4.280e-001 	
        81.985	  4.130e-003 	             	
        82.009	             	  4.279e-001 	
        82.049	  4.110e-003 	             	
        82.073	             	  4.279e-001 	
        82.113	  4.140e-003 	             	
        82.137	             	  4.279e-001 	
        82.177	  4.140e-003 	             	
        82.201	             	  4.279e-001 	
        82.241	  4.160e-003 	             	
        82.265	             	  4.279e-001 	
        82.305	  4.130e-003 	             	
        82.361	             	  4.279e-001 	
        82.401	  4.150e-003 	             	
        82.425	             	  4.279e-001 	
        82.465	  4.130e-003 	             	
        82.489	             	  4.280e-001 	
        82.529	  4.090e-003 	             	
        82.553	             	  4.280e-001 	
        82.593	  4.110e-003 	             	
        82.617	             	  4.279e-001 	
        82.657	  4.120e-003 	             	
        82.681	             	  4.279e-001 	
        82.721	  4.130e-003 	             	
        82.745	             	  4.279e-001 	
        82.785	  4.130e-003 	             	
        82.809	             	  4.280e-001 	
        82.849	  4.110e-003 	             	
        82.873	             	  4.281e-001 	
        82.913	  4.120e-003 	             	
        82.937	             	  4.281e-001 	
        82.977	  4.120e-003 	             	
        83.001	             	  4.282e-001 	
        83.041	  4.110e-003 	             	
        83.065	             	  4.282e-001 	
        83.105	  4.140e-003 	             	
        83.161	             	  4.282e-001 	
        83.201	  4.140e-003 	             	
        83.225	             	  4.283e-001 	
        83.265	  4.150e-003 	             	
        83.289	             	  4.283e-001 	
        83.329	  4.140e-003 	             	
        83.353	             	  4.283e-001 	
        83.393	  4.180e-003 	             	
        83.417	             	  4.283e-001 	
        83.457	  4.210e-003 	             	
        83.481	             	  4.283e-001 	
        83.521	  4.200e-003 	             	
        83.545	             	  4.283e-001 	
        83.585	  4.220e-003 	             	
        83.609	             	  4.283e-001 	
        83.649	  4.260e-003 	             	
        83.673	             	  4.283e-001 	
        83.713	  4.250e-003 	             	
        83.737	             	  4.283e-001 	
        83.777	  4.290e-003 	             	
        83.801	             	  4.283e-001 	
        83.841	  4.330e-003 	             	
        83.865	             	  4.283e-001 	
        83.904	  4.370e-003 	             	
        83.961	             	  4.283e-001 	
        83.969	  4.340e-003 	             	
        84.025	             	  4.283e-001 	
        84.065	  4.340e-003 	             	
        84.089	             	  4.283e-001 	
        84.129	  4.360e-003 	             	
        84.153	             	  4.283e-001 	
        84.193	  4.350e-003 	             	
        84.217	             	  4.282e-001 	
        84.257	  4.360e-003 	             	
        84.281	             	  4.282e-001 	
        84.321	  4.370e-003 	             	
        84.345	             	  4.282e-001 	
        84.384	  4.340e-003 	             	
        84.409	             	  4.282e-001 	
        84.448	  4.350e-003 	             	
        84.473	             	  4.282e-001 	
        84.513	  4.390e-003 	             	
        84.537	             	  4.281e-001 	
        84.577	  4.370e-003 	             	
        84.601	             	  4.281e-001 	
        84.641	  4.360e-003 	             	
        84.665	             	  4.281e-001 	
        84.705	  4.380e-003 	             	
        84.729	             	  4.282e-001 	
        84.768	  4.410e-003 	             	
        84.825	             	  4.282e-001 	
        84.865	  4.420e-003 	             	
        84.889	             	  4.282e-001 	
        84.929	  4.450e-003 	             	
        84.953	             	  4.282e-001 	
        84.992	  4.430e-003 	             	
        85.017	             	  4.283e-001 	
        85.057	  4.440e-003 	             	
        85.081	             	  4.284e-001 	
        85.120	  4.460e-003 	             	
        85.145	             	  4.285e-001 	
        85.185	  4.430e-003 	             	
        85.209	             	  4.285e-001 	
        85.249	  4.440e-003 	             	
        85.273	             	  4.284e-001 	
        85.313	  4.440e-003 	             	
        85.337	             	  4.283e-001 	
        85.376	  4.470e-003 	             	
        85.401	             	  4.283e-001 	
        85.440	  4.490e-003 	             	
        85.465	             	  4.282e-001 	
        85.505	  4.490e-003 	             	
        85.529	             	  4.281e-001 	
        85.568	  4.500e-003 	             	
        85.625	             	  4.280e-001 	
        85.664	  4.520e-003 	             	
        85.689	             	  4.280e-001 	
        85.728	  4.530e-003 	             	
        85.753	             	  4.280e-001 	
        85.792	  4.520e-003 	             	
        85.817	             	  4.280e-001 	
        85.857	  4.550e-003 	             	
        85.881	             	  4.280e-001 	
        85.920	  4.580e-003 	             	
        85.945	             	  4.280e-001 	
        85.984	  4.560e-003 	             	
        86.009	             	  4.281e-001 	
        86.049	  4.600e-003 	             	
        86.073	             	  4.281e-001 	
        86.112	  4.590e-003 	             	
        86.137	             	  4.281e-001 	
        86.176	  4.590e-003 	             	
        86.201	             	  4.281e-001 	
        86.240	  4.580e-003 	             	
        86.265	             	  4.281e-001 	
        86.304	  4.600e-003 	             	
        86.329	             	  4.282e-001 	
        86.368	  4.640e-003 	             	
        86.425	             	  4.282e-001 	
        86.465	  4.610e-003 	             	
        86.489	             	  4.282e-001 	
        86.528	  4.600e-003 	             	
        86.553	             	  4.281e-001 	
        86.592	  4.590e-003 	             	
        86.617	             	  4.280e-001 	
        86.656	  4.590e-003 	             	
        86.681	             	  4.280e-001 	
        86.720	  4.600e-003 	             	
        86.745	             	  4.280e-001 	
        86.784	  4.590e-003 	             	
        86.809	             	  4.280e-001 	
        86.848	  4.630e-003 	             	
        86.873	             	  4.280e-001 	
        86.912	  4.620e-003 	             	
        86.937	             	  4.280e-001 	
        86.976	  4.650e-003 	             	
        87.001	             	  4.280e-001 	
        87.040	  4.640e-003 	             	
        87.065	             	  4.281e-001 	
        87.104	  4.660e-003 	             	
        87.129	             	  4.281e-001 	
        87.168	  4.640e-003 	             	
        87.225	             	  4.281e-001 	
        87.264	  4.650e-003 	             	
        87.289	             	  4.280e-001 	
        87.328	  4.650e-003 	             	
        87.353	             	  4.279e-001 	
        87.392	  4.660e-003 	             	
        87.417	             	  4.279e-001 	
        87.456	  4.630e-003 	             	
        87.481	             	  4.280e-001 	
        87.520	  4.650e-003 	             	
        87.545	             	  4.280e-001 	
        87.584	  4.660e-003 	             	
        87.609	             	  4.280e-001 	
        87.648	  4.670e-003 	             	
        87.673	             	  4.280e-001 	
        87.712	  4.660e-003 	             	
        87.737	             	  4.280e-001 	
        87.776	  4.660e-003 	             	
        87.801	             	  4.279e-001 	
        87.840	  4.670e-003 	             	
        87.865	             	  4.278e-001 	
        87.904	  4.640e-003 	             	
        87.929	             	  4.277e-001 	
        87.968	  4.640e-003 	             	
        88.025	             	  4.277e-001 	
        88.064	  4.650e-003 	             	
        88.089	             	  4.277e-001 	
        88.128	  4.660e-003 	             	
        88.153	             	  4.276e-001 	
        88.192	  4.690e-003 	             	
        88.217	             	  4.276e-001 	
        88.256	  4.670e-003 	             	
        88.281	             	  4.276e-001 	
        88.320	  4.690e-003 	             	
        88.345	             	  4.277e-001 	
        88.384	  4.710e-003 	             	
        88.409	             	  4.276e-001 	
        88.448	  4.690e-003 	             	
        88.473	             	  4.276e-001 	
        88.512	  4.700e-003 	             	
        88.537	             	  4.276e-001 	
        88.576	  4.710e-003 	             	
        88.601	             	  4.276e-001 	
        88.640	  4.710e-003 	             	
        88.665	             	  4.276e-001 	
        88.704	  4.770e-003 	             	
        88.729	             	  4.276e-001 	
        88.769	  4.770e-003 	             	
        88.826	             	  4.277e-001 	
        88.865	  4.780e-003 	             	
        88.890	             	  4.277e-001 	
        88.929	  4.790e-003 	             	
        88.954	             	  4.276e-001 	
        88.993	  4.800e-003 	             	
        89.018	             	  4.276e-001 	
        89.057	  4.820e-003 	             	
        89.082	             	  4.275e-001 	
        89.121	  4.830e-003 	             	
        89.146	             	  4.275e-001 	
        89.185	  4.840e-003 	             	
        89.210	             	  4.275e-001 	
        89.249	  4.820e-003 	             	
        89.274	             	  4.275e-001 	
        89.313	  4.830e-003 	             	
        89.338	             	  4.275e-001 	
        89.377	  4.850e-003 	             	
        89.402	             	  4.275e-001 	
        89.441	  4.830e-003 	             	
        89.466	             	  4.276e-001 	
        89.505	  4.850e-003 	             	
        89.530	             	  4.277e-001 	
        89.569	  4.850e-003 	             	
        89.626	             	  4.277e-001 	
        89.665	  4.860e-003 	             	
        89.690	             	  4.277e-001 	
        89.729	  4.840e-003 	             	
        89.754	             	  4.278e-001 	
        89.793	  4.860e-003 	             	
        89.818	             	  4.278e-001 	
        89.857	  4.860e-003 	             	
        89.882	             	  4.279e-001 	
        89.921	  4.840e-003 	             	
        89.946	             	  4.279e-001 	
        89.985	  4.850e-003 	             	
        90.010	             	  4.279e-001 	
        90.049	  4.860e-003 	             	
        90.074	             	  4.279e-001 	
        90.113	  4.880e-003 	             	
        90.138	             	  4.279e-001 	
        90.177	  4.870e-003 	             	
        90.202	             	  4.279e-001 	
        90.241	  4.880e-003 	             	
        90.266	             	  4.279e-001 	
        90.305	  4.880e-003 	             	
        90.330	             	  4.280e-001 	
        90.369	  4.900e-003 	             	
        90.426	             	  4.281e-001 	
        90.465	  4.880e-003 	             	
        90.490	             	  4.281e-001 	
        90.529	  4.890e-003 	             	
        90.554	             	  4.281e-001 	
        90.593	  4.930e-003 	             	
        90.618	             	  4.281e-001 	
        90.657	  4.920e-003 	             	
        90.682	             	  4.282e-001 	
        90.721	  4.910e-003 	             	
        90.746	             	  4.282e-001 	
        90.785	  4.880e-003 	             	
        90.810	             	  4.282e-001 	
        90.849	  4.910e-003 	             	
        90.874	             	  4.281e-001 	
        90.913	  4.910e-003 	             	
        90.938	             	  4.281e-001 	
        90.977	  4.910e-003 	             	
        91.002	             	  4.281e-001 	
        91.041	  4.910e-003 	             	
        91.066	             	  4.281e-001 	
        91.105	  4.910e-003 	             	
        91.130	             	  4.281e-001 	
        91.169	  4.890e-003 	             	
        91.226	             	  4.282e-001 	
        91.265	  4.910e-003 	             	
        91.290	             	  4.283e-001 	
        91.329	  4.930e-003 	             	
        91.354	             	  4.283e-001 	
        91.393	  4.930e-003 	             	
        91.418	             	  4.283e-001 	
        91.457	  4.870e-003 	             	
        91.482	             	  4.283e-001 	
        91.521	  4.910e-003 	             	
        91.546	             	  4.283e-001 	
        91.585	  4.900e-003 	             	
        91.610	             	  4.283e-001 	
        91.649	  4.920e-003 	             	
        91.674	             	  4.283e-001 	
        91.713	  4.910e-003 	             	
        91.738	             	  4.283e-001 	
        91.777	  4.920e-003 	             	
        91.802	             	  4.283e-001 	
        91.841	  4.910e-003 	             	
        91.866	             	  4.283e-001 	
        91.905	  4.890e-003 	             	
        91.930	             	  4.284e-001 	
        91.969	  4.900e-003 	             	
        92.026	             	  4.285e-001 	
        92.065	  4.890e-003 	             	
        92.090	             	  4.285e-001 	
        92.129	  4.930e-003 	             	
        92.154	             	  4.285e-001 	
        92.193	  4.880e-003 	             	
        92.218	             	  4.285e-001 	
        92.257	  4.910e-003 	             	
        92.282	             	  4.284e-001 	
        92.321	  4.900e-003 	             	
        92.346	             	  4.283e-001 	
        92.385	  4.930e-003 	             	
        92.410	             	  4.283e-001 	
        92.449	  4.910e-003 	             	
        92.474	             	  4.283e-001 	
        92.513	  4.940e-003 	             	
        92.538	             	  4.283e-001 	
        92.577	  4.980e-003 	             	
        92.602	             	  4.283e-001 	
        92.641	  4.970e-003 	             	
        92.666	             	  4.284e-001 	
        92.705	  4.950e-003 	             	
        92.730	             	  4.284e-001 	
        92.769	  4.940e-003 	             	
        92.826	             	  4.284e-001 	
        92.865	  4.950e-003 	             	
        92.890	             	  4.284e-001 	
        92.929	  4.960e-003 	             	
        92.954	             	  4.284e-001 	
        92.993	  4.950e-003 	             	
        93.018	             	  4.284e-001 	
        93.057	  4.950e-003 	             	
        93.082	             	  4.283e-001 	
        93.121	  4.940e-003 	             	
        93.146	             	  4.282e-001 	
        93.185	  4.930e-003 	             	
        93.210	             	  4.281e-001 	
        93.249	  4.940e-003 	             	
        93.274	             	  4.281e-001 	
        93.313	  4.940e-003 	             	
        93.338	             	  4.282e-001 	
        93.377	  4.960e-003 	             	
        93.402	             	  4.282e-001 	
        93.441	  4.970e-003 	             	
        93.466	             	  4.282e-001 	
        93.505	  5.000e-003 	             	
        93.530	             	  4.283e-001 	
        93.569	  5.010e-003 	             	
        93.626	             	  4.284e-001 	
        93.665	  4.960e-003 	             	
        93.690	             	  4.284e-001 	
        93.729	  4.990e-003 	             	
        93.754	             	  4.284e-001 	
        93.793	  5.020e-003 	             	
        93.818	             	  4.284e-001 	
        93.857	  5.000e-003 	             	
        93.882	             	  4.283e-001 	
        93.921	  5.060e-003 	             	
        93.946	             	  4.283e-001 	
        93.985	  5.060e-003 	             	
        94.010	             	  4.282e-001 	
        94.049	  5.050e-003 	             	
        94.074	             	  4.282e-001 	
        94.113	  5.070e-003 	             	
        94.138	             	  4.283e-001 	
        94.177	  5.070e-003 	             	
        94.202	             	  4.282e-001 	
        94.241	  5.070e-003 	             	
        94.266	             	  4.282e-001 	
        94.305	  5.110e-003 	             	
        94.330	             	  4.283e-001 	
        94.369	  5.090e-003 	             	
        94.426	             	  4.283e-001 	
        94.465	  5.110e-003 	             	
        94.490	             	  4.283e-001 	
        94.529	  5.110e-003 	             	
        94.554	             	  4.283e-001 	
        94.593	  5.110e-003 	             	
        94.618	             	  4.283e-001 	
        94.657	  5.140e-003 	             	
        94.682	             	  4.282e-001 	
        94.721	  5.120e-003 	             	
        94.746	             	  4.282e-001 	
        94.785	  5.120e-003 	             	
        94.810	             	  4.282e-001 	
        94.849	  5.130e-003 	             	
        94.874	             	  4.283e-001 	
        94.913	  5.100e-003 	             	
        94.938	             	  4.283e-001 	
        94.977	  5.130e-003 	             	
        95.002	             	  4.283e-001 	
        95.041	  5.130e-003 	             	
        95.066	             	  4.283e-001 	
        95.105	  5.150e-003 	             	
        95.130	             	  4.282e-001 	
        95.169	  5.130e-003 	             	
        95.226	             	  4.282e-001 	
        95.265	  5.160e-003 	             	
        95.290	             	  4.282e-001 	
        95.329	  5.130e-003 	             	
        95.354	             	  4.282e-001 	
        95.393	  5.140e-003 	             	
        95.418	             	  4.282e-001 	
        95.457	  5.100e-003 	             	
        95.482	             	  4.282e-001 	
        95.521	  5.140e-003 	             	
        95.546	             	  4.282e-001 	
        95.585	  5.130e-003 	             	
        95.610	             	  4.282e-001 	
        95.649	  5.130e-003 	             	
        95.674	             	  4.282e-001 	
        95.713	  5.170e-003 	             	
        95.738	             	  4.283e-001 	
        95.777	  5.140e-003 	             	
        95.802	             	  4.284e-001 	
        95.841	  5.100e-003 	             	
        95.866	             	  4.284e-001 	
        95.905	  5.120e-003 	             	
        95.930	             	  4.285e-001 	
        95.969	  5.110e-003 	             	
        96.026	             	  4.284e-001 	
        96.065	  5.110e-003 	             	
        96.090	             	  4.283e-001 	
        96.129	  5.090e-003 	             	
        96.154	             	  4.282e-001 	
        96.193	  5.070e-003 	             	
        96.218	             	  4.282e-001 	
        96.257	  5.080e-003 	             	
        96.282	             	  4.282e-001 	
        96.321	  5.080e-003 	             	
        96.346	             	  4.282e-001 	
        96.385	  5.080e-003 	             	
        96.410	             	  4.283e-001 	
        96.449	  5.090e-003 	             	
        96.474	             	  4.283e-001 	
        96.513	  5.130e-003 	             	
        96.538	             	  4.283e-001 	
        96.577	  5.090e-003 	             	
        96.602	             	  4.284e-001 	
        96.641	  5.080e-003 	             	
        96.666	             	  4.284e-001 	
        96.705	  5.060e-003 	             	
        96.729	             	  4.284e-001 	
        96.769	  5.060e-003 	             	
        96.794	             	  4.284e-001 	
        96.865	  5.070e-003 	             	
        96.890	             	  4.285e-001 	
        96.929	  5.040e-003 	             	
        96.954	             	  4.285e-001 	
        96.993	  5.040e-003 	             	
        97.018	             	  4.285e-001 	
        97.057	  5.030e-003 	             	
        97.082	             	  4.284e-001 	
        97.121	  5.070e-003 	             	
        97.146	             	  4.284e-001 	
        97.185	  5.060e-003 	             	
        97.210	             	  4.283e-001 	
        97.249	  5.050e-003 	             	
        97.274	             	  4.283e-001 	
        97.313	  5.070e-003 	             	
        97.337	             	  4.284e-001 	
        97.377	  5.030e-003 	             	
        97.401	             	  4.284e-001 	
        97.441	  5.060e-003 	             	
        97.466	             	  4.284e-001 	
        97.505	  5.040e-003 	             	
        97.530	             	  4.284e-001 	
        97.569	  5.030e-003 	             	
        97.594	             	  4.284e-001 	
        97.633	  5.060e-003 	             	
        97.690	             	  4.284e-001 	
        97.729	  5.060e-003 	             	
        97.753	             	  4.284e-001 	
        97.793	  5.060e-003 	             	
        97.818	             	  4.284e-001 	
        97.857	  5.050e-003 	             	
        97.881	             	  4.284e-001 	
        97.921	  5.040e-003 	             	
        97.946	             	  4.284e-001 	
        97.985	  5.080e-003 	             	
        98.010	             	  4.284e-001 	
        98.049	  5.090e-003 	             	
        98.074	             	  4.283e-001 	
        98.113	  5.100e-003 	             	
        98.138	             	  4.283e-001 	
        98.177	  5.110e-003 	             	
        98.202	             	  4.283e-001 	
        98.241	  5.140e-003 	             	
        98.266	             	  4.282e-001 	
        98.305	  5.140e-003 	             	
        98.329	             	  4.282e-001 	
        98.369	  5.150e-003 	             	
        98.393	             	  4.282e-001 	
        98.433	  5.160e-003 	             	
        98.490	             	  4.282e-001 	
        98.529	  5.180e-003 	             	
        98.553	             	  4.282e-001 	
        98.593	  5.180e-003 	             	
        98.617	             	  4.282e-001 	
        98.657	  5.170e-003 	             	
        98.681	             	  4.282e-001 	
        98.721	  5.160e-003 	             	
        98.745	             	  4.283e-001 	
        98.785	  5.170e-003 	             	
        98.809	             	  4.284e-001 	
        98.849	  5.180e-003 	             	
        98.873	             	  4.284e-001 	
        98.913	  5.160e-003 	             	
        98.938	             	  4.285e-001 	
        98.977	  5.150e-003 	             	
        99.001	             	  4.285e-001 	
        99.041	  5.190e-003 	             	
        99.065	             	  4.284e-001 	
        99.105	  5.180e-003 	             	
        99.129	             	  4.283e-001 	
        99.169	  5.190e-003 	             	
        99.193	             	  4.282e-001 	
        99.233	  5.210e-003 	             	
        99.289	             	  4.281e-001 	
        99.329	  5.230e-003 	             	
        99.353	             	  4.280e-001 	
        99.393	  5.220e-003 	             	
        99.417	             	  4.281e-001 	
        99.457	  5.210e-003 	             	
        99.481	             	  4.281e-001 	
        99.521	  5.240e-003 	             	
        99.545	             	  4.281e-001 	
        99.585	  5.280e-003 	             	
        99.609	             	  4.281e-001 	
        99.649	  5.270e-003 	             	
        99.673	             	  4.280e-001 	
        99.713	  5.290e-003 	             	
        99.737	             	  4.280e-001 	
        99.777	  5.260e-003 	             	
        99.801	             	  4.280e-001 	
        99.841	  5.280e-003 	             	
        99.865	             	  4.280e-001 	
        99.905	  5.280e-003 	             	
        99.929	             	  4.279e-001 	
        99.969	  5.270e-003 	             	
        99.993	             	  4.278e-001 	
       100.033	  5.280e-003 	             	
       100.089	             	  4.278e-001 	
       100.129	  5.280e-003 	             	
       100.153	             	  4.278e-001 	
       100.193	  5.270e-003 	             	
       100.217	             	  4.279e-001 	
       100.257	  5.250e-003 	             	
       100.281	             	  4.280e-001 	
       100.321	  5.260e-003 	             	
       100.345	             	  4.280e-001 	
       100.385	  5.300e-003 	             	
       100.409	             	  4.280e-001 	
       100.449	  5.260e-003 	             	
       100.473	             	  4.280e-001 	
       100.513	  5.300e-003 	             	
       100.537	             	  4.280e-001 	
       100.577	  5.280e-003 	             	
       100.601	             	  4.280e-001 	
       100.641	  5.260e-003 	             	
       100.665	             	  4.280e-001 	
       100.705	  5.260e-003 	             	
       100.729	             	  4.279e-001 	
       100.769	  5.260e-003 	             	
       100.793	             	  4.279e-001 	
       100.833	  5.260e-003 	             	
       100.889	             	  4.279e-001 	
       100.929	  5.250e-003 	             	
       100.953	             	  4.279e-001 	
       100.993	  5.230e-003 	             	
       101.017	             	  4.279e-001 	
       101.057	  5.240e-003 	             	
       101.081	             	  4.279e-001 	
       101.121	  5.240e-003 	             	
       101.145	             	  4.279e-001 	
       101.185	  5.210e-003 	             	
       101.209	             	  4.280e-001 	
       101.249	  5.210e-003 	             	
       101.273	             	  4.279e-001 	
       101.313	  5.190e-003 	             	
       101.337	             	  4.279e-001 	
       101.377	  5.200e-003 	             	
       101.401	             	  4.280e-001 	
       101.441	  5.180e-003 	             	
       101.465	             	  4.281e-001 	
       101.505	  5.160e-003 	             	
       101.529	             	  4.281e-001 	
       101.569	  5.170e-003 	             	
       101.593	             	  4.283e-001 	
       101.633	  5.200e-003 	             	
       101.689	             	  4.283e-001 	
       101.729	  5.180e-003 	             	
       101.753	             	  4.283e-001 	
       101.793	  5.150e-003 	             	
       101.817	             	  4.284e-001 	
       101.857	  5.120e-003 	             	
       101.881	             	  4.284e-001 	
       101.920	  5.110e-003 	             	
       101.945	             	  4.283e-001 	
       101.985	  5.120e-003 	             	
       102.009	             	  4.281e-001 	
       102.049	  5.110e-003 	             	
       102.073	             	  4.280e-001 	
       102.112	  5.120e-003 	             	
       102.137	             	  4.278e-001 	
       102.177	  5.080e-003 	             	
       102.201	             	  4.278e-001 	
       102.241	  5.090e-003 	             	
       102.265	             	  4.277e-001 	
       102.305	  5.100e-003 	             	
       102.329	             	  4.277e-001 	
       102.369	  5.090e-003 	             	
       102.393	             	  4.277e-001 	
       102.432	  5.100e-003 	             	
       102.489	             	  4.278e-001 	
       102.529	  5.070e-003 	             	
       102.553	             	  4.278e-001 	
       102.593	  5.070e-003 	             	
       102.617	             	  4.279e-001 	
       102.656	  5.090e-003 	             	
       102.681	             	  4.280e-001 	
       102.721	  5.100e-003 	             	
       102.745	             	  4.280e-001 	
       102.784	  5.100e-003 	             	
       102.809	             	  4.281e-001 	
       102.849	  5.080e-003 	             	
       102.873	             	  4.281e-001 	
       102.912	  5.100e-003 	             	
       102.937	             	  4.282e-001 	
       102.976	  5.120e-003 	             	
       103.001	             	  4.282e-001 	
       103.041	  5.080e-003 	             	
       103.065	             	  4.283e-001 	
       103.104	  5.080e-003 	             	
       103.129	             	  4.283e-001 	
       103.168	  5.110e-003 	             	
       103.193	             	  4.283e-001 	
       103.232	  5.130e-003 	             	
       103.289	             	  4.282e-001 	
       103.328	  5.150e-003 	             	
       103.353	             	  4.282e-001 	
       103.393	  5.170e-003 	             	
       103.417	             	  4.282e-001 	
       103.456	  5.180e-003 	             	
       103.481	             	  4.281e-001 	
       103.520	  5.180e-003 	             	
       103.545	             	  4.281e-001 	
       103.584	  5.230e-003 	             	
       103.609	             	  4.282e-001 	
       103.648	  5.190e-003 	             	
       103.673	             	  4.282e-001 	
       103.712	  5.170e-003 	             	
       103.737	             	  4.282e-001 	
       103.776	  5.160e-003 	             	
       103.801	             	  4.281e-001 	
       103.840	  5.170e-003 	             	
       103.865	             	  4.281e-001 	
       103.904	  5.150e-003 	             	
       103.929	             	  4.281e-001 	
       103.968	  5.130e-003 	             	
       103.993	             	  4.281e-001 	
       104.033	  5.110e-003 	             	
       104.089	             	  4.281e-001 	
       104.128	  5.080e-003 	             	
       104.153	             	  4.281e-001 	
       104.192	  5.070e-003 	             	
       104.217	             	  4.281e-001 	
       104.256	  4.920e-003 	             	
       104.281	             	  4.281e-001 	
       104.320	  4.210e-003 	             	
       104.345	             	  4.281e-001 	
       104.384	  2.780e-003 	             	
       104.409	             	  4.281e-001 	
       104.448	  1.850e-003 	             	
       104.473	             	  4.280e-001 	
       104.512	  1.250e-003 	             	
       104.537	             	  4.279e-001 	
       104.576	  1.000e-003 	             	
       104.601	             	  4.279e-001 	
       104.640	  9.300e-004 	             	
       104.665	             	  4.279e-001 	
       104.704	  9.900e-004 	             	
       104.729	             	  4.280e-001 	
       104.768	  1.100e-003 	             	
       104.793	             	  4.280e-001 	
       104.832	  1.180e-003 	             	
       104.889	             	  4.281e-001 	
       104.928	  1.320e-003 	             	
       104.953	             	  4.281e-001 	
       104.992	  1.630e-003 	             	
       105.017	             	  4.280e-001 	
       105.056	  2.020e-003 	             	
       105.081	             	  4.281e-001 	
       105.120	  2.480e-003 	             	
       105.145	             	  4.281e-001 	
       105.184	  3.030e-003 	             	
       105.209	             	  4.281e-001 	
       105.248	  3.580e-003 	             	
       105.273	             	  4.281e-001 	
       105.312	  4.060e-003 	             	
       105.337	             	  4.281e-001 	
       105.376	  4.440e-003 	             	
       105.401	             	  4.280e-001 	
       105.440	  4.730e-003 	             	
       105.465	             	  4.280e-001 	
       105.504	  4.970e-003 	             	
       105.529	             	  4.280e-001 	
       105.568	  5.120e-003 	             	
       105.593	             	  4.279e-001 	
       105.632	  5.220e-003 	             	
       105.689	             	  4.280e-001 	
       105.728	  5.240e-003 	             	
       105.753	             	  4.281e-001 	
       105.792	  5.240e-003 	             	
       105.817	             	  4.281e-001 	
       105.856	  5.230e-003 	             	
       105.881	             	  4.282e-001 	
       105.920	  5.280e-003 	             	
       105.945	             	  4.282e-001 	
       105.984	  5.260e-003 	             	
       106.009	             	  4.282e-001 	
       106.048	  5.170e-003 	             	
       106.073	             	  4.283e-001 	
       106.112	  5.220e-003 	             	
       106.137	             	  4.283e-001 	
       106.176	  5.140e-003 	             	
       106.201	             	  4.284e-001 	
       106.240	  5.100e-003 	             	
       106.266	             	  4.284e-001 	
       106.305	  5.090e-003 	             	
       106.330	             	  4.284e-001 	
       106.369	  5.080e-003 	             	
       106.394	             	  4.283e-001 	
       106.433	  5.020e-003 	             	
       106.490	             	  4.283e-001 	
       106.529	  5.010e-003 	             	
       106.554	             	  4.282e-001 	
       106.593	  4.940e-003 	             	
       106.618	             	  4.282e-001 	
       106.657	  4.970e-003 	             	
       106.682	             	  4.282e-001 	
       106.721	  4.970e-003 	             	
       106.746	             	  4.282e-001 	
       106.785	  4.950e-003 	             	
       106.810	             	  4.282e-001 	
       106.849	  4.910e-003 	             	
       106.874	             	  4.283e-001 	
       106.913	  4.870e-003 	             	
       106.938	             	  4.284e-001 	
       106.977	  4.870e-003 	             	
       107.002	             	  4.283e-001 	
       107.041	  4.870e-003 	             	
       107.066	             	  4.283e-001 	
       107.105	  4.830e-003 	             	
       107.130	             	  4.283e-001 	
       107.169	  4.860e-003 	             	
       107.194	             	  4.282e-001 	
       107.233	  4.800e-003 	             	
       107.290	             	  4.282e-001 	
       107.329	  4.810e-003 	             	
       107.354	             	  4.282e-001 	
       107.393	  4.830e-003 	             	
       107.418	             	  4.281e-001 	
       107.457	  4.830e-003 	             	
       107.482	             	  4.281e-001 	
       107.521	  4.810e-003 	             	
       107.546	             	  4.281e-001 	
       107.585	  4.810e-003 	             	
       107.610	             	  4.282e-001 	
       107.649	  4.740e-003 	             	
       107.674	             	  4.282e-001 	
       107.713	  4.740e-003 	             	
       107.738	             	  4.282e-001 	
       107.777	  4.710e-003 	             	
       107.802	             	  4.281e-001 	
       107.841	  4.750e-003 	             	
       107.866	             	  4.281e-001 	
       107.905	  4.750e-003 	             	
       107.930	             	  4.281e-001 	
       107.969	  4.710e-003 	             	
       107.994	             	  4.281e-001 	
       108.033	  4.650e-003 	             	
       108.090	             	  4.282e-001 	
       108.129	  4.630e-003 	             	
       108.154	             	  4.283e-001 	
       108.193	  4.610e-003 	             	
       108.218	             	  4.283e-001 	
       108.257	  4.550e-003 	             	
       108.282	             	  4.283e-001 	
       108.321	  4.540e-003 	             	
       108.346	             	  4.282e-001 	
       108.385	  4.520e-003 	             	
       108.410	             	  4.281e-001 	
       108.449	  4.480e-003 	             	
       108.474	             	  4.281e-001 	
       108.513	  4.520e-003 	             	
       108.538	             	  4.281e-001 	
       108.577	  4.430e-003 	             	
       108.602	             	  4.281e-001 	
       108.641	  4.450e-003 	             	
       108.666	             	  4.281e-001 	
       108.705	  4.460e-003 	             	
       108.730	             	  4.281e-001 	
       108.769	  4.450e-003 	             	
       108.794	             	  4.281e-001 	
       108.833	  4.470e-003 	             	
       108.890	             	  4.281e-001 	
       108.929	  4.500e-003 	             	
       108.954	             	  4.280e-001 	
       108.993	  4.510e-003 	             	
       109.018	             	  4.280e-001 	
       109.057	  4.550e-003 	             	
       109.082	             	  4.280e-001 	
       109.121	  4.580e-003 	             	
       109.146	             	  4.281e-001 	
       109.185	  4.590e-003 	             	
       109.210	             	  4.281e-001 	
       109.249	  4.620e-003 	             	
       109.274	             	  4.282e-001 	
       109.313	  4.660e-003 	             	
       109.338	             	  4.283e-001 	
       109.377	  4.690e-003 	             	
       109.402	             	  4.283e-001 	
       109.441	  4.720e-003 	             	
       109.466	             	  4.282e-001 	
       109.505	  4.720e-003 	             	
       109.530	             	  4.282e-001 	
       109.569	  4.740e-003 	             	
       109.594	             	  4.282e-001 	
       109.633	  4.730e-003 	             	
       109.690	             	  4.282e-001 	
       109.729	  4.790e-003 	             	
       109.754	             	  4.281e-001 	
       109.793	  4.860e-003 	             	
       109.818	             	  4.281e-001 	
       109.857	  4.860e-003 	             	
       109.882	             	  4.282e-001 	
       109.921	  4.910e-003 	             	
       109.946	             	  4.282e-001 	
       109.985	  4.950e-003 	             	
       110.010	             	  4.284e-001 	
       110.049	  4.950e-003 	             	
       110.074	             	  4.284e-001 	
       110.113	  5.000e-003 	             	
       110.138	             	  4.284e-001 	
       110.177	  5.000e-003 	             	
       110.202	             	  4.284e-001 	
       110.241	  5.030e-003 	             	
       110.266	             	  4.283e-001 	
       110.305	  5.040e-003 	             	
       110.330	             	  4.283e-001 	
       110.369	  5.020e-003 	             	
       110.394	             	  4.283e-001 	
       110.433	  5.040e-003 	             	
       110.458	             	  4.282e-001 	
       110.497	  5.090e-003 	             	
       110.554	             	  4.282e-001 	
       110.593	  5.130e-003 	             	
       110.618	             	  4.281e-001 	
       110.657	  5.130e-003 	             	
       110.682	             	  4.281e-001 	
       110.721	  5.130e-003 	             	
       110.746	             	  4.282e-001 	
       110.785	  5.180e-003 	             	
       110.810	             	  4.283e-001 	
       110.849	  5.220e-003 	             	
       110.874	             	  4.283e-001 	
       110.913	  5.180e-003 	             	
       110.938	             	  4.283e-001 	
       110.977	  5.180e-003 	             	
       111.002	             	  4.283e-001 	
       111.041	  5.230e-003 	             	
       111.066	             	  4.284e-001 	
       111.105	  5.240e-003 	             	
       111.130	             	  4.285e-001 	
       111.169	  5.280e-003 	             	
       111.194	             	  4.286e-001 	
       111.233	  5.290e-003 	             	
       111.258	             	  4.286e-001 	
       111.297	  5.340e-003 	             	
       111.354	             	  4.286e-001 	
       111.393	  5.330e-003 	             	
       111.418	             	  4.286e-001 	
       111.457	  5.370e-003 	             	
       111.482	             	  4.285e-001 	
       111.521	  5.400e-003 	             	
       111.546	             	  4.285e-001 	
       111.585	  5.370e-003 	             	
       111.610	             	  4.285e-001 	
       111.649	  5.410e-003 	             	
       111.674	             	  4.284e-001 	
       111.713	  5.430e-003 	             	
       111.738	             	  4.284e-001 	
       111.777	  5.410e-003 	             	
       111.802	             	  4.284e-001 	
       111.841	  5.420e-003 	             	
       111.866	             	  4.285e-001 	
       111.905	  5.380e-003 	             	
       111.930	             	  4.286e-001 	
       111.969	  5.370e-003 	             	
       111.994	             	  4.287e-001 	
       112.033	  5.340e-003 	             	
       112.058	             	  4.288e-001 	
       112.097	  5.340e-003 	             	
       112.154	             	  4.288e-001 	
       112.193	  5.340e-003 	             	
       112.218	             	  4.287e-001 	
       112.257	  5.330e-003 	             	
       112.282	             	  4.285e-001 	
       112.321	  5.310e-003 	             	
       112.346	             	  4.285e-001 	
       112.385	  5.320e-003 	             	
       112.410	             	  4.285e-001 	
       112.449	  5.320e-003 	             	
       112.474	             	  4.285e-001 	
       112.513	  5.290e-003 	             	
       112.538	             	  4.284e-001 	
       112.577	  5.270e-003 	             	
       112.602	             	  4.284e-001 	
       112.641	  5.310e-003 	             	
       112.666	             	  4.284e-001 	
       112.705	  5.300e-003 	             	
       112.730	             	  4.284e-001 	
       112.769	  5.300e-003 	             	
       112.794	             	  4.283e-001 	
       112.833	  5.320e-003 	             	
       112.858	             	  4.283e-001 	
       112.897	  5.310e-003 	             	
       112.954	             	  4.282e-001 	
       112.993	  5.300e-003 	             	
       113.018	             	  4.283e-001 	
       113.057	  5.300e-003 	             	
       113.082	             	  4.283e-001 	
       113.121	  5.290e-003 	             	
       113.146	             	  4.283e-001 	
       113.185	  5.310e-003 	             	
       113.210	             	  4.283e-001 	
       113.249	  5.280e-003 	             	
       113.274	             	  4.283e-001 	
       113.313	  5.290e-003 	             	
       113.338	             	  4.283e-001 	
       113.377	  5.320e-003 	             	
       113.402	             	  4.283e-001 	
       113.441	  5.330e-003 	             	
       113.466	             	  4.283e-001 	
       113.505	  5.320e-003 	             	
       113.530	             	  4.283e-001 	
       113.569	  5.310e-003 	             	
       113.594	             	  4.283e-001 	
       113.633	  5.340e-003 	             	
       113.658	             	  4.283e-001 	
       113.697	  5.330e-003 	             	
       113.754	             	  4.283e-001 	
       113.793	  5.340e-003 	             	
       113.818	             	  4.283e-001 	
       113.857	  5.330e-003 	             	
       113.882	             	  4.284e-001 	
       113.921	  5.310e-003 	             	
       113.946	             	  4.284e-001 	
       113.985	  5.310e-003 	             	
       114.010	             	  4.284e-001 	
       114.049	  5.310e-003 	             	
       114.074	             	  4.285e-001 	
       114.113	  5.310e-003 	             	
       114.138	             	  4.285e-001 	
       114.177	  5.360e-003 	             	
       114.202	             	  4.285e-001 	
       114.241	  5.330e-003 	             	
       114.266	             	  4.285e-001 	
       114.305	  5.330e-003 	             	
       114.330	             	  4.285e-001 	
       114.369	  5.310e-003 	             	
       114.394	             	  4.286e-001 	
       114.433	  5.300e-003 	             	
       114.457	             	  4.286e-001 	
       114.497	  5.300e-003 	             	
       114.553	             	  4.285e-001 	
       114.593	  5.320e-003 	             	
       114.618	             	  4.284e-001 	
       114.657	  5.300e-003 	             	
       114.682	             	  4.283e-001 	
       114.721	  5.320e-003 	             	
       114.746	             	  4.282e-001 	
       114.785	  5.310e-003 	             	
       114.809	             	  4.281e-001 	
       114.849	  5.350e-003 	             	
       114.874	             	  4.281e-001 	
       114.913	  5.300e-003 	             	
       114.937	             	  4.281e-001 	
       114.977	  5.310e-003 	             	
       115.001	             	  4.281e-001 	
       115.041	  5.300e-003 	             	
       115.066	             	  4.282e-001 	
       115.105	  5.300e-003 	             	
       115.129	             	  4.283e-001 	
       115.169	  5.320e-003 	             	
       115.194	             	  4.283e-001 	
       115.233	  5.280e-003 	             	
       115.257	             	  4.283e-001 	
       115.297	  5.330e-003 	             	
       115.354	             	  4.283e-001 	
       115.393	  5.320e-003 	             	
       115.417	             	  4.282e-001 	
       115.457	  5.270e-003 	             	
       115.482	             	  4.282e-001 	
       115.521	  5.330e-003 	             	
       115.545	             	  4.281e-001 	
       115.585	  5.330e-003 	             	
       115.609	             	  4.281e-001 	
       115.649	  5.310e-003 	             	
       115.673	             	  4.281e-001 	
       115.713	  5.310e-003 	             	
       115.737	             	  4.281e-001 	
       115.777	  5.280e-003 	             	
       115.801	             	  4.281e-001 	
       115.841	  5.310e-003 	             	
       115.865	             	  4.281e-001 	
       115.905	  5.290e-003 	             	
       115.930	             	  4.281e-001 	
       115.969	  5.290e-003 	             	
       115.993	             	  4.280e-001 	
       116.033	  5.280e-003 	             	
       116.057	             	  4.280e-001 	
       116.097	  5.330e-003 	             	
       116.154	             	  4.280e-001 	
       116.193	  5.320e-003 	             	
       116.217	             	  4.279e-001 	
       116.257	  5.320e-003 	             	
       116.281	             	  4.279e-001 	
       116.321	  5.310e-003 	             	
       116.345	             	  4.279e-001 	
       116.385	  5.290e-003 	             	
       116.409	             	  4.279e-001 	
       116.449	  5.320e-003 	             	
       116.473	             	  4.279e-001 	
       116.513	  5.300e-003 	             	
       116.537	             	  4.279e-001 	
       116.577	  5.280e-003 	             	
       116.601	             	  4.280e-001 	
       116.641	  5.320e-003 	             	
       116.665	             	  4.281e-001 	
       116.705	  5.310e-003 	             	
       116.729	             	  4.281e-001 	
       116.769	  5.310e-003 	             	
       116.793	             	  4.282e-001 	
       116.833	  5.300e-003 	             	
       116.858	             	  4.282e-001 	
       116.897	  5.280e-003 	             	
       116.953	             	  4.282e-001 	
       116.993	  5.340e-003 	             	
       117.017	             	  4.281e-001 	
       117.057	  5.330e-003 	             	
       117.081	             	  4.281e-001 	
       117.121	  5.310e-003 	             	
       117.145	             	  4.281e-001 	
       117.185	  5.320e-003 	             	
       117.209	             	  4.282e-001 	
       117.249	  5.310e-003 	             	
       117.273	             	  4.282e-001 	
       117.313	  5.290e-003 	             	
       117.337	             	  4.282e-001 	
       117.377	  5.300e-003 	             	
       117.401	             	  4.283e-001 	
       117.441	  5.270e-003 	             	
       117.465	             	  4.283e-001 	
       117.505	  5.270e-003 	             	
       117.529	             	  4.283e-001 	
       117.569	  5.270e-003 	             	
       117.593	             	  4.284e-001 	
       117.633	  5.280e-003 	             	
       117.657	             	  4.284e-001 	
       117.697	  5.270e-003 	             	
       117.753	             	  4.283e-001 	
       117.793	  5.280e-003 	             	
       117.817	             	  4.283e-001 	
       117.857	  5.300e-003 	             	
       117.881	             	  4.282e-001 	
       117.921	  5.310e-003 	             	
       117.945	             	  4.282e-001 	
       117.985	  5.300e-003 	             	
       118.009	             	  4.282e-001 	
       118.049	  5.310e-003 	             	
       118.073	             	  4.281e-001 	
       118.113	  5.290e-003 	             	
       118.137	             	  4.281e-001 	
       118.177	  5.280e-003 	             	
       118.201	             	  4.282e-001 	
       118.241	  5.330e-003 	             	
       118.265	             	  4.282e-001 	
       118.305	  5.300e-003 	             	
       118.329	             	  4.282e-001 	
       118.369	  5.310e-003 	             	
       118.393	             	  4.282e-001 	
       118.433	  5.310e-003 	             	
       118.457	             	  4.283e-001 	
       118.497	  5.310e-003 	             	
       118.553	             	  4.284e-001 	
       118.593	  5.320e-003 	             	
       118.617	             	  4.285e-001 	
       118.657	  5.280e-003 	             	
       118.681	             	  4.286e-001 	
       118.721	  5.270e-003 	             	
       118.745	             	  4.286e-001 	
       118.785	  5.290e-003 	             	
       118.809	             	  4.286e-001 	
       118.849	  5.280e-003 	             	
       118.873	             	  4.286e-001 	
       118.912	  5.280e-003 	             	
       118.937	             	  4.286e-001 	
       118.977	  5.320e-003 	             	
       119.001	             	  4.285e-001 	
       119.041	  5.330e-003 	             	
       119.066	             	  4.284e-001 	
       119.105	  5.310e-003 	             	
       119.129	             	  4.284e-001 	
       119.169	  5.290e-003 	             	
       119.193	             	  4.284e-001 	
       119.233	  5.290e-003 	             	
       119.257	             	  4.284e-001 	
       119.296	  5.300e-003 	             	
       119.353	             	  4.283e-001 	
       119.393	  5.330e-003 	             	
       119.417	             	  4.283e-001 	
       119.456	  5.310e-003 	             	
       119.481	             	  4.283e-001 	
       119.521	  5.290e-003 	             	
       119.545	             	  4.283e-001 	
       119.585	  5.280e-003 	             	
       119.609	             	  4.284e-001 	
       119.649	  5.300e-003 	             	
       119.673	             	  4.285e-001 	
       119.713	  5.350e-003 	             	
       119.737	             	  4.285e-001 	
       119.777	  5.270e-003 	             	
       119.801	             	  4.286e-001 	
       119.841	  5.280e-003 	             	
       119.865	             	  4.286e-001 	
       119.904	  5.320e-003 	             	
       119.929	             	  4.286e-001 	
       119.969	  5.320e-003 	             	
       119.993	             	  4.286e-001 	
       120.032	  5.270e-003 	             	
       120.057	             	  4.286e-001 	
       120.096	  5.270e-003 	             	
       120.153	             	  4.286e-001 	
       120.192	  5.310e-003 	             	
       120.217	             	  4.285e-001 	
       120.256	  5.270e-003 	             	
       120.281	             	  4.284e-001 	
       120.320	  5.310e-003 	             	
       120.345	             	  4.283e-001 	
       120.384	  5.300e-003 	             	
       120.409	             	  4.283e-001 	
       120.448	  5.270e-003 	             	
       120.473	             	  4.282e-001 	
       120.513	  5.280e-003 	             	
       120.537	             	  4.283e-001 	
       120.576	  5.260e-003 	             	
       120.601	             	  4.283e-001 	
       120.640	  5.340e-003 	             	
       120.665	             	  4.283e-001 	
       120.704	  5.300e-003 	             	
       120.729	             	  4.283e-001 	
       120.768	  5.330e-003 	             	
       120.793	             	  4.283e-001 	
       120.832	  5.300e-003 	             	
       120.857	             	  4.284e-001 	
       120.896	  5.310e-003 	             	
       120.953	             	  4.284e-001 	
       120.992	  5.300e-003 	             	
       121.017	             	  4.284e-001 	
       121.056	  5.280e-003 	             	
       121.081	             	  4.285e-001 	
       121.120	  5.250e-003 	             	
       121.145	             	  4.285e-001 	
       121.184	  5.240e-003 	             	
       121.209	             	  4.284e-001 	
       121.248	  5.320e-003 	             	
       121.273	             	  4.285e-001 	
       121.312	  5.270e-003 	             	
       121.337	             	  4.284e-001 	
       121.376	  5.260e-003 	             	
       121.401	             	  4.284e-001 	
       121.440	  5.260e-003 	             	
       121.465	             	  4.284e-001 	
       121.504	  5.210e-003 	             	
       121.529	             	  4.284e-001 	
       121.568	  5.250e-003 	             	
       121.593	             	  4.284e-001 	
       121.632	  5.260e-003 	             	
       121.657	             	  4.283e-001 	
       121.696	  5.250e-003 	             	
       121.753	             	  4.283e-001 	
       121.792	  5.230e-003 	             	
       121.817	             	  4.283e-001 	
       121.856	  5.250e-003 	             	
       121.881	             	  4.282e-001 	
       121.920	  5.260e-003 	             	
       121.945	             	  4.282e-001 	
       121.984	  5.250e-003 	             	
       122.009	             	  4.281e-001 	
       122.048	  5.260e-003 	             	
       122.073	             	  4.280e-001 	
       122.112	  5.270e-003 	             	
       122.137	             	  4.280e-001 	
       122.176	  5.270e-003 	             	
       122.201	             	  4.280e-001 	
