;PC Software:StarLab Version 2.10 Build 25
;Logged:22/09/2022 at 16:09:09
;File Version:3
;Graph Type:Line
;Notes:                                                            

;Channel A:Nova II Photodiode PD300-3W-v1 (s/n:763106)  NN2.52 (s/n:767396)
;Channel B:Vega Thermopile 10A-V1.1 (s/n:693380)  VG2.44 (s/n:858327)

;Channel A:Details
;Name:PD300-3W-v1
;Graph Color:RGB(0,102,255)
;Units:W
;Settings:Measuring:Power
;Settings:Wavelength:1064
;Settings:Range:AUTO
;Settings:Filter:IN

;Channel B:Details
;Name:10A-V1.1
;Graph Color:RGB(154,0,0)
;Units:W
;Settings:Measuring:Power
;Settings:Laser:.8-6
;Settings:Range:AUTO
;--------------------


;First Pulse Arrived : 22/09/2022 at 16:09:09.473000
  Timestamp   	  Channel A  	  Channel B  	
         0.000	             	  4.396e-001 	
         0.008	  1.263e-002 	             	
         0.064	             	  4.396e-001 	
         0.072	  1.261e-002 	             	
         0.128	             	  4.395e-001 	
         0.136	  1.256e-002 	             	
         0.192	             	  4.395e-001 	
         0.200	  1.257e-002 	             	
         0.256	             	  4.395e-001 	
         0.264	  1.264e-002 	             	
         0.320	             	  4.394e-001 	
         0.328	  1.270e-002 	             	
         0.384	             	  4.394e-001 	
         0.392	  1.260e-002 	             	
         0.456	  1.268e-002 	             	
         0.480	             	  4.395e-001 	
         0.520	  1.259e-002 	             	
         0.544	             	  4.396e-001 	
         0.584	  1.258e-002 	             	
         0.608	             	  4.396e-001 	
         0.648	  1.257e-002 	             	
         0.672	             	  4.396e-001 	
         0.736	             	  4.396e-001 	
         0.744	  1.260e-002 	             	
         0.801	             	  4.395e-001 	
         0.809	  1.264e-002 	             	
         0.865	             	  4.395e-001 	
         0.873	  1.269e-002 	             	
         0.929	             	  4.396e-001 	
         0.937	  1.273e-002 	             	
         0.993	             	  4.396e-001 	
         1.001	  1.269e-002 	             	
         1.057	             	  4.397e-001 	
         1.065	  1.264e-002 	             	
         1.121	             	  4.398e-001 	
         1.129	  1.273e-002 	             	
         1.185	             	  4.399e-001 	
         1.193	  1.277e-002 	             	
         1.257	  1.269e-002 	             	
         1.281	             	  4.399e-001 	
         1.321	  1.275e-002 	             	
         1.345	             	  4.399e-001 	
         1.385	  1.279e-002 	             	
         1.409	             	  4.400e-001 	
         1.449	  1.282e-002 	             	
         1.473	             	  4.400e-001 	
         1.537	             	  4.400e-001 	
         1.545	  1.269e-002 	             	
         1.601	             	  4.401e-001 	
         1.609	  1.271e-002 	             	
         1.665	             	  4.401e-001 	
         1.673	  1.271e-002 	             	
         1.730	             	  4.402e-001 	
         1.737	  1.275e-002 	             	
         1.793	             	  4.403e-001 	
         1.801	  1.279e-002 	             	
         1.857	             	  4.403e-001 	
         1.865	  1.275e-002 	             	
         1.921	             	  4.404e-001 	
         1.929	  1.280e-002 	             	
         1.985	             	  4.404e-001 	
         1.993	  1.268e-002 	             	
         2.057	  1.278e-002 	             	
         2.081	             	  4.404e-001 	
         2.121	  1.275e-002 	             	
         2.145	             	  4.405e-001 	
         2.185	  1.281e-002 	             	
         2.209	             	  4.405e-001 	
         2.249	  1.272e-002 	             	
         2.273	             	  4.405e-001 	
         2.337	             	  4.406e-001 	
         2.345	  1.277e-002 	             	
         2.401	             	  4.406e-001 	
         2.409	  1.263e-002 	             	
         2.465	             	  4.406e-001 	
         2.473	  1.249e-002 	             	
         2.529	             	  4.407e-001 	
         2.537	  1.263e-002 	             	
         2.593	             	  4.407e-001 	
         2.601	  1.270e-002 	             	
         2.657	             	  4.407e-001 	
         2.665	  1.262e-002 	             	
         2.721	             	  4.407e-001 	
         2.729	  1.264e-002 	             	
         2.785	             	  4.408e-001 	
         2.793	  1.263e-002 	             	
         2.857	  1.264e-002 	             	
         2.881	             	  4.408e-001 	
         2.921	  1.274e-002 	             	
         2.945	             	  4.408e-001 	
         2.985	  1.275e-002 	             	
         3.009	             	  4.409e-001 	
         3.049	  1.284e-002 	             	
         3.073	             	  4.409e-001 	
         3.137	             	  4.409e-001 	
         3.145	  1.282e-002 	             	
         3.201	             	  4.410e-001 	
         3.209	  1.273e-002 	             	
         3.265	             	  4.410e-001 	
         3.273	  1.281e-002 	             	
         3.329	             	  4.411e-001 	
         3.337	  1.277e-002 	             	
         3.393	             	  4.411e-001 	
         3.401	  1.282e-002 	             	
         3.457	             	  4.410e-001 	
         3.465	  1.277e-002 	             	
         3.521	             	  4.410e-001 	
         3.529	  1.269e-002 	             	
         3.585	             	  4.411e-001 	
         3.593	  1.267e-002 	             	
         3.657	  1.256e-002 	             	
         3.681	             	  4.411e-001 	
         3.721	  1.266e-002 	             	
         3.745	             	  4.412e-001 	
         3.784	  1.250e-002 	             	
         3.809	             	  4.412e-001 	
         3.849	  1.248e-002 	             	
         3.873	             	  4.410e-001 	
         3.937	             	  4.409e-001 	
         3.945	  1.250e-002 	             	
         4.001	             	  4.409e-001 	
         4.008	  1.252e-002 	             	
         4.065	             	  4.409e-001 	
         4.073	  1.209e-002 	             	
         4.129	             	  4.409e-001 	
         4.136	  1.243e-002 	             	
         4.193	             	  4.409e-001 	
         4.200	  1.248e-002 	             	
         4.257	             	  4.410e-001 	
         4.264	  1.229e-002 	             	
         4.321	             	  4.410e-001 	
         4.328	  1.235e-002 	             	
         4.385	             	  4.411e-001 	
         4.392	  1.243e-002 	             	
         4.457	  1.239e-002 	             	
         4.481	             	  4.411e-001 	
         4.520	  1.240e-002 	             	
         4.545	             	  4.411e-001 	
         4.584	  1.227e-002 	             	
         4.609	             	  4.412e-001 	
         4.649	  1.236e-002 	             	
         4.673	             	  4.412e-001 	
         4.712	  1.229e-002 	             	
         4.737	             	  4.413e-001 	
         4.801	             	  4.412e-001 	
         4.808	  1.236e-002 	             	
         4.865	             	  4.412e-001 	
         4.872	  1.226e-002 	             	
         4.929	             	  4.412e-001 	
         4.936	  1.229e-002 	             	
         4.993	             	  4.412e-001 	
         5.000	  1.222e-002 	             	
         5.057	             	  4.412e-001 	
         5.064	  1.223e-002 	             	
         5.121	             	  4.412e-001 	
         5.128	  1.227e-002 	             	
         5.185	             	  4.412e-001 	
         5.192	  1.236e-002 	             	
         5.257	  1.221e-002 	             	
         5.281	             	  4.412e-001 	
         5.320	  1.229e-002 	             	
         5.345	             	  4.412e-001 	
         5.384	  1.225e-002 	             	
         5.409	             	  4.412e-001 	
         5.448	  1.230e-002 	             	
         5.473	             	  4.413e-001 	
         5.512	  1.225e-002 	             	
         5.537	             	  4.413e-001 	
         5.601	             	  4.413e-001 	
         5.608	  1.222e-002 	             	
         5.665	             	  4.413e-001 	
         5.672	  1.227e-002 	             	
         5.729	             	  4.413e-001 	
         5.736	  1.237e-002 	             	
         5.793	             	  4.412e-001 	
         5.800	  1.234e-002 	             	
         5.857	             	  4.412e-001 	
         5.864	  1.227e-002 	             	
         5.921	             	  4.412e-001 	
         5.928	  1.232e-002 	             	
         5.985	             	  4.412e-001 	
         5.992	  1.229e-002 	             	
         6.056	  1.229e-002 	             	
         6.081	             	  4.412e-001 	
         6.120	  1.228e-002 	             	
         6.145	             	  4.413e-001 	
         6.184	  1.227e-002 	             	
         6.209	             	  4.413e-001 	
         6.248	  1.237e-002 	             	
         6.273	             	  4.413e-001 	
         6.312	  1.247e-002 	             	
         6.337	             	  4.413e-001 	
         6.401	             	  4.413e-001 	
         6.408	  1.245e-002 	             	
         6.465	             	  4.414e-001 	
         6.472	  1.244e-002 	             	
         6.529	             	  4.414e-001 	
         6.536	  1.246e-002 	             	
         6.593	             	  4.414e-001 	
         6.600	  1.226e-002 	             	
         6.657	             	  4.415e-001 	
         6.664	  1.229e-002 	             	
         6.721	             	  4.414e-001 	
         6.728	  1.236e-002 	             	
         6.785	             	  4.413e-001 	
         6.792	  1.231e-002 	             	
         6.856	  1.233e-002 	             	
         6.881	             	  4.412e-001 	
         6.920	  1.231e-002 	             	
         6.945	             	  4.411e-001 	
         6.984	  1.236e-002 	             	
         7.009	             	  4.411e-001 	
         7.048	  1.237e-002 	             	
         7.073	             	  4.410e-001 	
         7.112	  1.237e-002 	             	
         7.137	             	  4.410e-001 	
         7.201	             	  4.410e-001 	
         7.208	  1.241e-002 	             	
         7.265	             	  4.410e-001 	
         7.272	  1.240e-002 	             	
         7.329	             	  4.410e-001 	
         7.336	  1.236e-002 	             	
         7.393	             	  4.411e-001 	
         7.400	  1.236e-002 	             	
         7.457	             	  4.411e-001 	
         7.464	  1.238e-002 	             	
         7.521	             	  4.411e-001 	
         7.528	  1.230e-002 	             	
         7.585	             	  4.411e-001 	
         7.592	  1.235e-002 	             	
         7.656	  1.230e-002 	             	
         7.681	             	  4.410e-001 	
         7.720	  1.244e-002 	             	
         7.745	             	  4.410e-001 	
         7.784	  1.238e-002 	             	
         7.809	             	  4.410e-001 	
         7.848	  1.239e-002 	             	
         7.873	             	  4.410e-001 	
         7.912	  1.230e-002 	             	
         7.937	             	  4.410e-001 	
         8.001	             	  4.410e-001 	
         8.008	  1.227e-002 	             	
         8.065	             	  4.410e-001 	
         8.072	  1.222e-002 	             	
         8.129	             	  4.409e-001 	
         8.136	  1.232e-002 	             	
         8.193	             	  4.408e-001 	
         8.200	  1.208e-002 	             	
         8.257	             	  4.407e-001 	
         8.264	  1.227e-002 	             	
         8.321	             	  4.406e-001 	
         8.328	  1.239e-002 	             	
         8.385	             	  4.405e-001 	
         8.392	  1.234e-002 	             	
         8.449	             	  4.405e-001 	
         8.456	  1.243e-002 	             	
         8.520	  1.250e-002 	             	
         8.545	             	  4.405e-001 	
         8.584	  1.256e-002 	             	
         8.609	             	  4.404e-001 	
         8.648	  1.242e-002 	             	
         8.673	             	  4.405e-001 	
         8.712	  1.246e-002 	             	
         8.737	             	  4.406e-001 	
         8.801	             	  4.406e-001 	
         8.808	  1.245e-002 	             	
         8.865	             	  4.407e-001 	
         8.872	  1.227e-002 	             	
         8.929	             	  4.407e-001 	
         8.936	  1.232e-002 	             	
         8.993	             	  4.407e-001 	
         9.000	  1.230e-002 	             	
         9.057	             	  4.407e-001 	
         9.064	  1.235e-002 	             	
         9.121	             	  4.408e-001 	
         9.128	  1.228e-002 	             	
         9.185	             	  4.407e-001 	
         9.192	  1.241e-002 	             	
         9.249	             	  4.407e-001 	
         9.256	  1.234e-002 	             	
         9.320	  1.233e-002 	             	
         9.345	             	  4.406e-001 	
         9.384	  1.237e-002 	             	
         9.409	             	  4.405e-001 	
         9.448	  1.245e-002 	             	
         9.473	             	  4.404e-001 	
         9.512	  1.239e-002 	             	
         9.537	             	  4.404e-001 	
         9.601	             	  4.405e-001 	
         9.608	  1.237e-002 	             	
         9.665	             	  4.406e-001 	
         9.672	  1.233e-002 	             	
         9.729	             	  4.407e-001 	
         9.736	  1.230e-002 	             	
         9.793	             	  4.407e-001 	
         9.800	  1.225e-002 	             	
         9.857	             	  4.407e-001 	
         9.864	  1.225e-002 	             	
         9.921	             	  4.407e-001 	
         9.928	  1.228e-002 	             	
         9.985	             	  4.406e-001 	
         9.992	  1.234e-002 	             	
        10.049	             	  4.405e-001 	
        10.056	  1.228e-002 	             	
        10.120	  1.235e-002 	             	
        10.145	             	  4.405e-001 	
        10.184	  1.223e-002 	             	
        10.209	             	  4.406e-001 	
        10.248	  1.231e-002 	             	
        10.273	             	  4.405e-001 	
        10.312	  1.233e-002 	             	
        10.337	             	  4.405e-001 	
        10.401	             	  4.404e-001 	
        10.408	  1.241e-002 	             	
        10.465	             	  4.404e-001 	
        10.472	  1.240e-002 	             	
        10.529	             	  4.403e-001 	
        10.536	  1.240e-002 	             	
        10.593	             	  4.404e-001 	
        10.600	  1.238e-002 	             	
        10.657	             	  4.404e-001 	
        10.664	  1.239e-002 	             	
        10.721	             	  4.404e-001 	
        10.728	  1.244e-002 	             	
        10.785	             	  4.404e-001 	
        10.792	  1.242e-002 	             	
        10.849	             	  4.404e-001 	
        10.856	  1.247e-002 	             	
        10.920	  1.248e-002 	             	
        10.945	             	  4.404e-001 	
        10.984	  1.245e-002 	             	
        11.010	             	  4.403e-001 	
        11.048	  1.240e-002 	             	
        11.073	             	  4.403e-001 	
        11.112	  1.243e-002 	             	
        11.137	             	  4.403e-001 	
        11.201	             	  4.403e-001 	
        11.208	  1.238e-002 	             	
        11.265	             	  4.403e-001 	
        11.272	  1.233e-002 	             	
        11.329	             	  4.403e-001 	
        11.336	  1.241e-002 	             	
        11.393	             	  4.403e-001 	
        11.400	  1.243e-002 	             	
        11.457	             	  4.403e-001 	
        11.464	  1.239e-002 	             	
        11.521	             	  4.402e-001 	
        11.528	  1.238e-002 	             	
        11.585	             	  4.402e-001 	
        11.592	  1.251e-002 	             	
        11.649	             	  4.402e-001 	
        11.656	  1.236e-002 	             	
        11.720	  1.231e-002 	             	
        11.745	             	  4.401e-001 	
        11.784	  1.236e-002 	             	
        11.809	             	  4.401e-001 	
        11.848	  1.234e-002 	             	
        11.873	             	  4.401e-001 	
        11.912	  1.232e-002 	             	
        11.937	             	  4.401e-001 	
        12.001	             	  4.401e-001 	
        12.008	  1.232e-002 	             	
        12.065	             	  4.401e-001 	
        12.072	  1.242e-002 	             	
        12.129	             	  4.401e-001 	
        12.136	  1.227e-002 	             	
        12.193	             	  4.401e-001 	
        12.200	  1.222e-002 	             	
        12.257	             	  4.401e-001 	
        12.264	  1.223e-002 	             	
        12.321	             	  4.401e-001 	
        12.328	  1.233e-002 	             	
        12.385	             	  4.401e-001 	
        12.392	  1.239e-002 	             	
        12.449	             	  4.401e-001 	
        12.456	  1.220e-002 	             	
        12.520	  1.218e-002 	             	
        12.545	             	  4.401e-001 	
        12.584	  1.206e-002 	             	
        12.609	             	  4.401e-001 	
        12.648	  1.218e-002 	             	
        12.673	             	  4.400e-001 	
        12.712	  1.220e-002 	             	
        12.737	             	  4.400e-001 	
        12.801	             	  4.399e-001 	
        12.808	  1.220e-002 	             	
        12.865	             	  4.399e-001 	
        12.872	  1.227e-002 	             	
        12.929	             	  4.399e-001 	
        12.936	  1.226e-002 	             	
        12.993	             	  4.399e-001 	
        13.000	  1.219e-002 	             	
        13.057	             	  4.399e-001 	
        13.064	  1.226e-002 	             	
        13.121	             	  4.399e-001 	
        13.128	  1.226e-002 	             	
        13.185	             	  4.399e-001 	
        13.192	  1.233e-002 	             	
        13.249	             	  4.399e-001 	
        13.256	  1.225e-002 	             	
        13.320	  1.226e-002 	             	
        13.345	             	  4.399e-001 	
        13.384	  1.236e-002 	             	
        13.409	             	  4.400e-001 	
        13.448	  1.236e-002 	             	
        13.473	             	  4.401e-001 	
        13.512	  1.237e-002 	             	
        13.537	             	  4.401e-001 	
        13.601	             	  4.402e-001 	
        13.608	  1.244e-002 	             	
        13.665	             	  4.402e-001 	
        13.672	  1.244e-002 	             	
        13.729	             	  4.402e-001 	
        13.736	  1.233e-002 	             	
        13.793	             	  4.402e-001 	
        13.800	  1.219e-002 	             	
        13.857	             	  4.402e-001 	
        13.864	  1.216e-002 	             	
        13.921	             	  4.400e-001 	
        13.928	  1.229e-002 	             	
        13.985	             	  4.399e-001 	
        13.992	  1.225e-002 	             	
        14.049	             	  4.399e-001 	
        14.056	  1.210e-002 	             	
        14.120	  1.216e-002 	             	
        14.145	             	  4.398e-001 	
        14.184	  1.224e-002 	             	
        14.209	             	  4.398e-001 	
        14.248	  1.232e-002 	             	
        14.273	             	  4.398e-001 	
        14.312	  1.214e-002 	             	
        14.337	             	  4.398e-001 	
        14.401	             	  4.398e-001 	
        14.408	  1.223e-002 	             	
        14.465	             	  4.398e-001 	
        14.472	  1.223e-002 	             	
        14.529	             	  4.398e-001 	
        14.536	  1.211e-002 	             	
        14.593	             	  4.399e-001 	
        14.600	  1.211e-002 	             	
        14.657	             	  4.399e-001 	
        14.664	  1.207e-002 	             	
        14.721	             	  4.399e-001 	
        14.728	  1.224e-002 	             	
        14.785	             	  4.399e-001 	
        14.792	  1.232e-002 	             	
        14.849	             	  4.399e-001 	
        14.856	  1.232e-002 	             	
        14.920	  1.233e-002 	             	
        14.945	             	  4.399e-001 	
        14.984	  1.237e-002 	             	
        15.009	             	  4.400e-001 	
        15.048	  1.231e-002 	             	
        15.073	             	  4.401e-001 	
        15.112	  1.240e-002 	             	
        15.137	             	  4.401e-001 	
        15.201	             	  4.401e-001 	
        15.208	  1.237e-002 	             	
        15.265	             	  4.401e-001 	
        15.272	  1.245e-002 	             	
        15.329	             	  4.402e-001 	
        15.336	  1.238e-002 	             	
        15.393	             	  4.402e-001 	
        15.400	  1.238e-002 	             	
        15.457	             	  4.403e-001 	
        15.464	  1.232e-002 	             	
        15.521	             	  4.402e-001 	
        15.528	  1.255e-002 	             	
        15.585	             	  4.403e-001 	
        15.592	  1.244e-002 	             	
        15.649	             	  4.404e-001 	
        15.656	  1.243e-002 	             	
        15.720	  1.243e-002 	             	
        15.745	             	  4.405e-001 	
        15.784	  1.247e-002 	             	
        15.809	             	  4.406e-001 	
        15.848	  1.244e-002 	             	
        15.873	             	  4.406e-001 	
        15.912	  1.246e-002 	             	
        15.937	             	  4.406e-001 	
        16.000	             	  4.406e-001 	
        16.008	  1.252e-002 	             	
        16.065	             	  4.405e-001 	
        16.072	  1.245e-002 	             	
        16.129	             	  4.405e-001 	
        16.136	  1.252e-002 	             	
        16.193	             	  4.405e-001 	
        16.200	  1.239e-002 	             	
        16.257	             	  4.406e-001 	
        16.264	  1.244e-002 	             	
        16.320	             	  4.406e-001 	
        16.328	  1.245e-002 	             	
        16.385	             	  4.407e-001 	
        16.392	  1.258e-002 	             	
        16.449	             	  4.407e-001 	
        16.456	  1.256e-002 	             	
        16.520	  1.257e-002 	             	
        16.545	             	  4.408e-001 	
        16.584	  1.253e-002 	             	
        16.609	             	  4.408e-001 	
        16.648	  1.249e-002 	             	
        16.672	             	  4.407e-001 	
        16.712	  1.256e-002 	             	
        16.737	             	  4.407e-001 	
        16.801	             	  4.407e-001 	
        16.808	  1.245e-002 	             	
        16.865	             	  4.407e-001 	
        16.872	  1.248e-002 	             	
        16.929	             	  4.408e-001 	
        16.936	  1.230e-002 	             	
        16.993	             	  4.409e-001 	
        17.000	  1.243e-002 	             	
        17.057	             	  4.410e-001 	
        17.064	  1.247e-002 	             	
        17.120	             	  4.410e-001 	
        17.128	  1.240e-002 	             	
        17.184	             	  4.409e-001 	
        17.192	  1.245e-002 	             	
        17.249	             	  4.408e-001 	
        17.256	  1.237e-002 	             	
        17.320	  1.241e-002 	             	
        17.345	             	  4.408e-001 	
        17.384	  1.233e-002 	             	
        17.408	             	  4.409e-001 	
        17.448	  1.237e-002 	             	
        17.472	             	  4.409e-001 	
        17.512	  1.238e-002 	             	
        17.536	             	  4.409e-001 	
        17.600	             	  4.409e-001 	
        17.608	  1.231e-002 	             	
        17.664	             	  4.410e-001 	
        17.672	  1.227e-002 	             	
        17.728	             	  4.410e-001 	
        17.736	  1.222e-002 	             	
        17.793	             	  4.410e-001 	
        17.800	  1.233e-002 	             	
        17.856	             	  4.410e-001 	
        17.864	  1.228e-002 	             	
        17.920	             	  4.410e-001 	
        17.928	  1.226e-002 	             	
        17.984	             	  4.410e-001 	
        17.992	  1.223e-002 	             	
        18.049	             	  4.410e-001 	
        18.056	  1.227e-002 	             	
        18.120	  1.203e-002 	             	
        18.144	             	  4.410e-001 	
        18.184	  1.234e-002 	             	
        18.208	             	  4.410e-001 	
        18.248	  1.221e-002 	             	
        18.273	             	  4.409e-001 	
        18.313	  1.226e-002 	             	
        18.337	             	  4.410e-001 	
        18.377	  1.229e-002 	             	
        18.401	             	  4.411e-001 	
        18.465	             	  4.411e-001 	
        18.473	  1.234e-002 	             	
        18.529	             	  4.412e-001 	
        18.537	  1.235e-002 	             	
        18.593	             	  4.413e-001 	
        18.601	  1.225e-002 	             	
        18.657	             	  4.413e-001 	
        18.665	  1.224e-002 	             	
        18.721	             	  4.413e-001 	
        18.729	  1.220e-002 	             	
        18.785	             	  4.413e-001 	
        18.793	  1.218e-002 	             	
        18.849	             	  4.412e-001 	
        18.857	  1.216e-002 	             	
        18.921	  1.238e-002 	             	
        18.945	             	  4.412e-001 	
        18.985	  1.229e-002 	             	
        19.009	             	  4.412e-001 	
        19.049	  1.235e-002 	             	
        19.073	             	  4.412e-001 	
        19.113	  1.229e-002 	             	
        19.137	             	  4.413e-001 	
        19.177	  1.225e-002 	             	
        19.201	             	  4.414e-001 	
        19.265	             	  4.415e-001 	
        19.273	  1.225e-002 	             	
        19.329	             	  4.415e-001 	
        19.337	  1.228e-002 	             	
        19.393	             	  4.415e-001 	
        19.401	  1.227e-002 	             	
        19.457	             	  4.414e-001 	
        19.465	  1.219e-002 	             	
        19.521	             	  4.413e-001 	
        19.529	  1.227e-002 	             	
        19.585	             	  4.412e-001 	
        19.593	  1.220e-002 	             	
        19.649	             	  4.411e-001 	
        19.657	  1.230e-002 	             	
        19.721	  1.230e-002 	             	
        19.745	             	  4.410e-001 	
        19.785	  1.225e-002 	             	
        19.809	             	  4.410e-001 	
        19.849	  1.214e-002 	             	
        19.873	             	  4.410e-001 	
        19.913	  1.222e-002 	             	
        19.937	             	  4.409e-001 	
        19.977	  1.230e-002 	             	
        20.001	             	  4.408e-001 	
        20.065	             	  4.407e-001 	
        20.073	  1.230e-002 	             	
        20.129	             	  4.407e-001 	
        20.137	  1.228e-002 	             	
        20.193	             	  4.406e-001 	
        20.201	  1.240e-002 	             	
        20.257	             	  4.405e-001 	
        20.264	  1.239e-002 	             	
        20.321	             	  4.405e-001 	
        20.329	  1.240e-002 	             	
        20.385	             	  4.407e-001 	
        20.392	  1.248e-002 	             	
        20.449	             	  4.407e-001 	
        20.457	  1.239e-002 	             	
        20.521	  1.249e-002 	             	
        20.545	             	  4.408e-001 	
        20.585	  1.242e-002 	             	
        20.609	             	  4.408e-001 	
        20.649	  1.252e-002 	             	
        20.673	             	  4.409e-001 	
        20.713	  1.249e-002 	             	
        20.737	             	  4.408e-001 	
        20.777	  1.251e-002 	             	
        20.801	             	  4.408e-001 	
        20.865	             	  4.407e-001 	
        20.873	  1.253e-002 	             	
        20.929	             	  4.406e-001 	
        20.937	  1.252e-002 	             	
        20.993	             	  4.406e-001 	
        21.001	  1.252e-002 	             	
        21.057	             	  4.405e-001 	
        21.065	  1.251e-002 	             	
        21.121	             	  4.404e-001 	
        21.128	  1.256e-002 	             	
        21.185	             	  4.404e-001 	
        21.192	  1.256e-002 	             	
        21.249	             	  4.403e-001 	
        21.257	  1.258e-002 	             	
        21.320	  1.264e-002 	             	
        21.345	             	  4.402e-001 	
        21.385	  1.257e-002 	             	
        21.409	             	  4.402e-001 	
        21.449	  1.274e-002 	             	
        21.473	             	  4.402e-001 	
        21.512	  1.265e-002 	             	
        21.537	             	  4.403e-001 	
        21.577	  1.262e-002 	             	
        21.601	             	  4.403e-001 	
        21.665	             	  4.404e-001 	
        21.673	  1.261e-002 	             	
        21.729	             	  4.403e-001 	
        21.737	  1.259e-002 	             	
        21.793	             	  4.403e-001 	
        21.801	  1.244e-002 	             	
        21.857	             	  4.402e-001 	
        21.865	  1.243e-002 	             	
        21.921	             	  4.402e-001 	
        21.928	  1.246e-002 	             	
        21.985	             	  4.400e-001 	
        21.992	  1.261e-002 	             	
        22.049	             	  4.399e-001 	
        22.056	  1.262e-002 	             	
        22.113	             	  4.399e-001 	
        22.120	  1.267e-002 	             	
        22.184	  1.273e-002 	             	
        22.209	             	  4.400e-001 	
        22.248	  1.259e-002 	             	
        22.273	             	  4.401e-001 	
        22.312	  1.250e-002 	             	
        22.337	             	  4.402e-001 	
        22.376	  1.245e-002 	             	
        22.401	             	  4.404e-001 	
        22.465	             	  4.404e-001 	
        22.472	  1.250e-002 	             	
        22.529	             	  4.404e-001 	
        22.536	  1.246e-002 	             	
        22.593	             	  4.403e-001 	
        22.600	  1.251e-002 	             	
        22.657	             	  4.402e-001 	
        22.664	  1.231e-002 	             	
        22.721	             	  4.402e-001 	
        22.728	  1.244e-002 	             	
        22.785	             	  4.401e-001 	
        22.792	  1.232e-002 	             	
        22.849	             	  4.401e-001 	
        22.856	  1.236e-002 	             	
        22.913	             	  4.400e-001 	
        22.920	  1.241e-002 	             	
        22.984	  1.224e-002 	             	
        23.009	             	  4.400e-001 	
        23.048	  1.228e-002 	             	
        23.073	             	  4.399e-001 	
        23.112	  1.224e-002 	             	
        23.137	             	  4.399e-001 	
        23.176	  1.226e-002 	             	
        23.201	             	  4.399e-001 	
        23.265	             	  4.399e-001 	
        23.272	  1.232e-002 	             	
        23.329	             	  4.399e-001 	
        23.336	  1.216e-002 	             	
        23.393	             	  4.400e-001 	
        23.400	  1.220e-002 	             	
        23.457	             	  4.401e-001 	
        23.464	  1.227e-002 	             	
        23.521	             	  4.401e-001 	
        23.528	  1.225e-002 	             	
        23.585	             	  4.401e-001 	
        23.592	  1.226e-002 	             	
        23.649	             	  4.402e-001 	
        23.656	  1.221e-002 	             	
        23.713	             	  4.402e-001 	
        23.720	  1.223e-002 	             	
        23.784	  1.216e-002 	             	
        23.809	             	  4.403e-001 	
        23.848	  1.224e-002 	             	
        23.873	             	  4.403e-001 	
        23.913	  1.231e-002 	             	
        23.937	             	  4.403e-001 	
        23.976	  1.223e-002 	             	
        24.001	             	  4.402e-001 	
        24.065	             	  4.402e-001 	
        24.072	  1.226e-002 	             	
        24.129	             	  4.402e-001 	
        24.136	  1.213e-002 	             	
        24.193	             	  4.402e-001 	
        24.200	  1.221e-002 	             	
        24.257	             	  4.401e-001 	
        24.264	  1.220e-002 	             	
        24.321	             	  4.401e-001 	
        24.328	  1.208e-002 	             	
        24.385	             	  4.401e-001 	
        24.392	  1.202e-002 	             	
        24.449	             	  4.401e-001 	
        24.456	  1.214e-002 	             	
        24.513	             	  4.401e-001 	
        24.520	  1.216e-002 	             	
        24.584	  1.224e-002 	             	
        24.609	             	  4.401e-001 	
        24.648	  1.210e-002 	             	
        24.673	             	  4.400e-001 	
        24.712	  1.212e-002 	             	
        24.737	             	  4.400e-001 	
        24.776	  1.219e-002 	             	
        24.801	             	  4.401e-001 	
        24.865	             	  4.401e-001 	
        24.872	  1.228e-002 	             	
        24.929	             	  4.401e-001 	
        24.936	  1.221e-002 	             	
        24.993	             	  4.402e-001 	
        25.000	  1.210e-002 	             	
        25.057	             	  4.403e-001 	
        25.064	  1.207e-002 	             	
        25.121	             	  4.403e-001 	
        25.128	  1.225e-002 	             	
        25.185	             	  4.402e-001 	
        25.192	  1.230e-002 	             	
        25.249	             	  4.402e-001 	
        25.256	  1.225e-002 	             	
        25.313	             	  4.402e-001 	
        25.320	  1.230e-002 	             	
        25.384	  1.243e-002 	             	
        25.409	             	  4.403e-001 	
        25.448	  1.232e-002 	             	
        25.473	             	  4.403e-001 	
        25.512	  1.230e-002 	             	
        25.537	             	  4.404e-001 	
        25.576	  1.237e-002 	             	
        25.601	             	  4.404e-001 	
        25.665	             	  4.405e-001 	
        25.672	  1.251e-002 	             	
        25.729	             	  4.405e-001 	
        25.736	  1.244e-002 	             	
        25.793	             	  4.406e-001 	
        25.800	  1.240e-002 	             	
        25.857	             	  4.406e-001 	
        25.864	  1.253e-002 	             	
        25.921	             	  4.407e-001 	
        25.928	  1.255e-002 	             	
        25.985	             	  4.407e-001 	
        25.992	  1.251e-002 	             	
        26.049	             	  4.408e-001 	
        26.056	  1.263e-002 	             	
        26.113	             	  4.409e-001 	
        26.120	  1.255e-002 	             	
        26.184	  1.262e-002 	             	
        26.209	             	  4.409e-001 	
        26.248	  1.264e-002 	             	
        26.273	             	  4.410e-001 	
        26.312	  1.269e-002 	             	
        26.337	             	  4.410e-001 	
        26.376	  1.276e-002 	             	
        26.401	             	  4.410e-001 	
        26.465	             	  4.410e-001 	
        26.472	  1.266e-002 	             	
        26.529	             	  4.409e-001 	
        26.536	  1.272e-002 	             	
        26.593	             	  4.408e-001 	
        26.600	  1.275e-002 	             	
        26.657	             	  4.407e-001 	
        26.664	  1.269e-002 	             	
        26.721	             	  4.408e-001 	
        26.728	  1.274e-002 	             	
        26.785	             	  4.408e-001 	
        26.792	  1.273e-002 	             	
        26.849	             	  4.408e-001 	
        26.856	  1.279e-002 	             	
        26.913	             	  4.409e-001 	
        26.920	  1.282e-002 	             	
        26.984	  1.268e-002 	             	
        27.009	             	  4.409e-001 	
        27.048	  1.261e-002 	             	
        27.073	             	  4.408e-001 	
        27.112	  1.264e-002 	             	
        27.137	             	  4.408e-001 	
        27.176	  1.259e-002 	             	
        27.201	             	  4.407e-001 	
        27.265	             	  4.407e-001 	
        27.272	  1.269e-002 	             	
        27.329	             	  4.406e-001 	
        27.336	  1.267e-002 	             	
        27.393	             	  4.407e-001 	
        27.400	  1.260e-002 	             	
        27.457	             	  4.407e-001 	
        27.464	  1.265e-002 	             	
        27.521	             	  4.408e-001 	
        27.528	  1.262e-002 	             	
        27.585	             	  4.408e-001 	
        27.592	  1.264e-002 	             	
        27.649	             	  4.409e-001 	
        27.656	  1.245e-002 	             	
        27.713	             	  4.409e-001 	
        27.720	  1.273e-002 	             	
        27.784	  1.266e-002 	             	
        27.809	             	  4.409e-001 	
        27.848	  1.246e-002 	             	
        27.873	             	  4.411e-001 	
        27.912	  1.257e-002 	             	
        27.937	             	  4.413e-001 	
        27.976	  1.245e-002 	             	
        28.001	             	  4.413e-001 	
        28.065	             	  4.414e-001 	
        28.072	  1.249e-002 	             	
        28.129	             	  4.414e-001 	
        28.136	  1.236e-002 	             	
        28.193	             	  4.413e-001 	
        28.200	  1.257e-002 	             	
        28.257	             	  4.413e-001 	
        28.264	  1.245e-002 	             	
        28.321	             	  4.413e-001 	
        28.328	  1.228e-002 	             	
        28.385	             	  4.413e-001 	
        28.392	  1.231e-002 	             	
        28.449	             	  4.414e-001 	
        28.456	  1.236e-002 	             	
        28.513	             	  4.414e-001 	
        28.520	  1.228e-002 	             	
        28.584	  1.222e-002 	             	
        28.609	             	  4.414e-001 	
        28.648	  1.227e-002 	             	
        28.673	             	  4.415e-001 	
        28.712	  1.220e-002 	             	
        28.737	             	  4.414e-001 	
        28.776	  1.214e-002 	             	
        28.801	             	  4.414e-001 	
        28.865	             	  4.413e-001 	
        28.872	  1.221e-002 	             	
        28.929	             	  4.413e-001 	
        28.936	  1.232e-002 	             	
        28.993	             	  4.413e-001 	
        29.000	  1.227e-002 	             	
        29.057	             	  4.413e-001 	
        29.064	  1.225e-002 	             	
        29.121	             	  4.414e-001 	
        29.128	  1.225e-002 	             	
        29.185	             	  4.414e-001 	
        29.192	  1.214e-002 	             	
        29.249	             	  4.414e-001 	
        29.256	  1.231e-002 	             	
        29.313	             	  4.414e-001 	
        29.320	  1.224e-002 	             	
        29.384	  1.220e-002 	             	
        29.409	             	  4.414e-001 	
        29.448	  1.229e-002 	             	
        29.473	             	  4.414e-001 	
        29.512	  1.219e-002 	             	
        29.537	             	  4.415e-001 	
        29.576	  1.223e-002 	             	
        29.601	             	  4.415e-001 	
        29.665	             	  4.414e-001 	
        29.672	  1.226e-002 	             	
        29.729	             	  4.412e-001 	
        29.736	  1.227e-002 	             	
        29.793	             	  4.412e-001 	
        29.800	  1.235e-002 	             	
        29.857	             	  4.412e-001 	
        29.864	  1.217e-002 	             	
        29.921	             	  4.412e-001 	
        29.928	  1.223e-002 	             	
        29.985	             	  4.411e-001 	
        29.992	  1.223e-002 	             	
        30.049	             	  4.411e-001 	
        30.056	  1.223e-002 	             	
        30.113	             	  4.410e-001 	
        30.120	  1.220e-002 	             	
        30.184	  1.216e-002 	             	
        30.209	             	  4.409e-001 	
        30.248	  1.217e-002 	             	
        30.273	             	  4.409e-001 	
        30.312	  1.223e-002 	             	
        30.337	             	  4.409e-001 	
        30.376	  1.217e-002 	             	
        30.401	             	  4.409e-001 	
        30.465	             	  4.408e-001 	
        30.472	  1.227e-002 	             	
        30.529	             	  4.408e-001 	
        30.536	  1.236e-002 	             	
        30.593	             	  4.407e-001 	
        30.600	  1.237e-002 	             	
        30.657	             	  4.407e-001 	
        30.664	  1.238e-002 	             	
        30.721	             	  4.407e-001 	
        30.728	  1.240e-002 	             	
        30.785	             	  4.406e-001 	
        30.792	  1.247e-002 	             	
        30.849	             	  4.406e-001 	
        30.856	  1.246e-002 	             	
        30.913	             	  4.406e-001 	
        30.920	  1.242e-002 	             	
        30.984	  1.244e-002 	             	
        31.009	             	  4.406e-001 	
        31.048	  1.248e-002 	             	
        31.073	             	  4.405e-001 	
        31.112	  1.249e-002 	             	
        31.137	             	  4.405e-001 	
        31.176	  1.248e-002 	             	
        31.201	             	  4.404e-001 	
        31.240	  1.246e-002 	             	
        31.265	             	  4.404e-001 	
        31.329	             	  4.403e-001 	
        31.336	  1.245e-002 	             	
        31.393	             	  4.404e-001 	
        31.400	  1.259e-002 	             	
        31.457	             	  4.404e-001 	
        31.464	  1.262e-002 	             	
        31.521	             	  4.403e-001 	
        31.528	  1.263e-002 	             	
        31.585	             	  4.403e-001 	
        31.592	  1.257e-002 	             	
        31.649	             	  4.404e-001 	
        31.656	  1.261e-002 	             	
        31.713	             	  4.404e-001 	
        31.720	  1.262e-002 	             	
        31.784	  1.260e-002 	             	
        31.809	             	  4.404e-001 	
        31.848	  1.266e-002 	             	
        31.873	             	  4.404e-001 	
        31.912	  1.273e-002 	             	
        31.937	             	  4.404e-001 	
        31.976	  1.272e-002 	             	
        32.001	             	  4.403e-001 	
        32.040	  1.277e-002 	             	
        32.065	             	  4.403e-001 	
        32.129	             	  4.404e-001 	
        32.136	  1.271e-002 	             	
        32.193	             	  4.404e-001 	
        32.200	  1.273e-002 	             	
        32.257	             	  4.404e-001 	
        32.264	  1.270e-002 	             	
        32.321	             	  4.404e-001 	
        32.328	  1.267e-002 	             	
        32.385	             	  4.403e-001 	
        32.392	  1.276e-002 	             	
        32.449	             	  4.403e-001 	
        32.456	  1.262e-002 	             	
        32.513	             	  4.402e-001 	
        32.520	  1.267e-002 	             	
        32.584	  1.275e-002 	             	
        32.609	             	  4.402e-001 	
        32.648	  1.267e-002 	             	
        32.673	             	  4.402e-001 	
        32.712	  1.260e-002 	             	
        32.737	             	  4.402e-001 	
        32.776	  1.257e-002 	             	
        32.801	             	  4.401e-001 	
        32.840	  1.260e-002 	             	
        32.865	             	  4.401e-001 	
        32.929	             	  4.401e-001 	
        32.936	  1.257e-002 	             	
        32.993	             	  4.401e-001 	
        33.000	  1.256e-002 	             	
        33.057	             	  4.401e-001 	
        33.064	  1.259e-002 	             	
        33.121	             	  4.401e-001 	
        33.128	  1.261e-002 	             	
        33.185	             	  4.401e-001 	
        33.192	  1.253e-002 	             	
        33.249	             	  4.401e-001 	
        33.256	  1.254e-002 	             	
        33.313	             	  4.401e-001 	
        33.320	  1.253e-002 	             	
        33.384	  1.242e-002 	             	
        33.409	             	  4.401e-001 	
        33.448	  1.241e-002 	             	
        33.473	             	  4.402e-001 	
        33.512	  1.237e-002 	             	
        33.537	             	  4.401e-001 	
        33.576	  1.228e-002 	             	
        33.601	             	  4.401e-001 	
        33.640	  1.230e-002 	             	
        33.665	             	  4.401e-001 	
        33.729	             	  4.400e-001 	
        33.736	  1.228e-002 	             	
        33.793	             	  4.400e-001 	
        33.800	  1.226e-002 	             	
        33.857	             	  4.399e-001 	
        33.864	  1.220e-002 	             	
        33.921	             	  4.400e-001 	
        33.928	  1.218e-002 	             	
        33.985	             	  4.400e-001 	
        33.992	  1.215e-002 	             	
        34.049	             	  4.400e-001 	
        34.056	  1.220e-002 	             	
        34.112	             	  4.400e-001 	
        34.120	  1.219e-002 	             	
        34.184	  1.219e-002 	             	
        34.209	             	  4.400e-001 	
        34.248	  1.222e-002 	             	
        34.273	             	  4.399e-001 	
        34.312	  1.217e-002 	             	
        34.337	             	  4.400e-001 	
        34.376	  1.230e-002 	             	
        34.401	             	  4.400e-001 	
        34.440	  1.227e-002 	             	
        34.465	             	  4.401e-001 	
        34.529	             	  4.401e-001 	
        34.536	  1.228e-002 	             	
        34.593	             	  4.401e-001 	
        34.600	  1.225e-002 	             	
        34.657	             	  4.402e-001 	
        34.664	  1.231e-002 	             	
        34.721	             	  4.403e-001 	
        34.728	  1.223e-002 	             	
        34.784	             	  4.404e-001 	
        34.792	  1.218e-002 	             	
        34.849	             	  4.405e-001 	
        34.856	  1.222e-002 	             	
        34.912	             	  4.405e-001 	
        34.920	  1.229e-002 	             	
        34.977	             	  4.405e-001 	
        34.984	  1.229e-002 	             	
        35.048	  1.219e-002 	             	
        35.072	             	  4.405e-001 	
        35.112	  1.224e-002 	             	
        35.136	             	  4.405e-001 	
        35.176	  1.224e-002 	             	
        35.200	             	  4.405e-001 	
        35.240	  1.227e-002 	             	
        35.264	             	  4.404e-001 	
        35.329	             	  4.404e-001 	
        35.336	  1.222e-002 	             	
        35.392	             	  4.405e-001 	
        35.400	  1.228e-002 	             	
        35.456	             	  4.405e-001 	
        35.464	  1.223e-002 	             	
        35.520	             	  4.405e-001 	
        35.528	  1.225e-002 	             	
        35.584	             	  4.405e-001 	
        35.592	  1.229e-002 	             	
        35.648	             	  4.405e-001 	
        35.656	  1.238e-002 	             	
        35.712	             	  4.404e-001 	
        35.720	  1.238e-002 	             	
        35.777	             	  4.404e-001 	
        35.785	  1.230e-002 	             	
        35.849	  1.235e-002 	             	
        35.873	             	  4.404e-001 	
        35.913	  1.236e-002 	             	
        35.938	             	  4.404e-001 	
        35.977	  1.246e-002 	             	
        36.001	             	  4.404e-001 	
        36.041	  1.248e-002 	             	
        36.065	             	  4.405e-001 	
        36.129	             	  4.405e-001 	
        36.137	  1.251e-002 	             	
        36.193	             	  4.404e-001 	
        36.201	  1.249e-002 	             	
        36.257	             	  4.404e-001 	
        36.265	  1.259e-002 	             	
        36.321	             	  4.403e-001 	
        36.329	  1.241e-002 	             	
        36.385	             	  4.403e-001 	
        36.393	  1.254e-002 	             	
        36.449	             	  4.403e-001 	
        36.457	  1.258e-002 	             	
        36.513	             	  4.403e-001 	
        36.521	  1.261e-002 	             	
        36.577	             	  4.403e-001 	
        36.585	  1.263e-002 	             	
        36.649	  1.252e-002 	             	
        36.673	             	  4.404e-001 	
        36.713	  1.260e-002 	             	
        36.737	             	  4.404e-001 	
        36.777	  1.266e-002 	             	
        36.801	             	  4.404e-001 	
        36.841	  1.261e-002 	             	
        36.865	             	  4.404e-001 	
        36.929	             	  4.403e-001 	
        36.937	  1.264e-002 	             	
        36.993	             	  4.403e-001 	
        37.001	  1.268e-002 	             	
        37.057	             	  4.402e-001 	
        37.065	  1.268e-002 	             	
        37.121	             	  4.401e-001 	
        37.129	  1.263e-002 	             	
        37.185	             	  4.400e-001 	
        37.193	  1.272e-002 	             	
        37.249	             	  4.400e-001 	
        37.257	  1.273e-002 	             	
        37.313	             	  4.400e-001 	
        37.321	  1.262e-002 	             	
        37.377	             	  4.400e-001 	
        37.385	  1.267e-002 	             	
        37.449	  1.269e-002 	             	
        37.473	             	  4.400e-001 	
        37.513	  1.274e-002 	             	
        37.537	             	  4.400e-001 	
        37.577	  1.275e-002 	             	
        37.601	             	  4.399e-001 	
        37.641	  1.263e-002 	             	
        37.665	             	  4.399e-001 	
        37.729	             	  4.399e-001 	
        37.737	  1.266e-002 	             	
        37.793	             	  4.399e-001 	
        37.801	  1.267e-002 	             	
        37.857	             	  4.399e-001 	
        37.865	  1.254e-002 	             	
        37.921	             	  4.400e-001 	
        37.929	  1.263e-002 	             	
        37.985	             	  4.400e-001 	
        37.993	  1.258e-002 	             	
        38.049	             	  4.399e-001 	
        38.057	  1.254e-002 	             	
        38.113	             	  4.399e-001 	
        38.121	  1.259e-002 	             	
        38.177	             	  4.399e-001 	
        38.185	  1.260e-002 	             	
        38.249	  1.264e-002 	             	
        38.273	             	  4.399e-001 	
        38.313	  1.259e-002 	             	
        38.337	             	  4.399e-001 	
        38.377	  1.257e-002 	             	
        38.401	             	  4.399e-001 	
        38.441	  1.257e-002 	             	
        38.465	             	  4.400e-001 	
        38.529	             	  4.401e-001 	
        38.537	  1.254e-002 	             	
        38.593	             	  4.401e-001 	
        38.600	  1.247e-002 	             	
        38.657	             	  4.402e-001 	
        38.665	  1.248e-002 	             	
        38.721	             	  4.402e-001 	
        38.729	  1.241e-002 	             	
        38.785	             	  4.403e-001 	
        38.792	  1.240e-002 	             	
        38.849	             	  4.403e-001 	
        38.856	  1.243e-002 	             	
        38.913	             	  4.404e-001 	
        38.921	  1.237e-002 	             	
        38.977	             	  4.404e-001 	
        38.984	  1.225e-002 	             	
        39.049	  1.236e-002 	             	
        39.073	             	  4.403e-001 	
        39.113	  1.225e-002 	             	
        39.137	             	  4.402e-001 	
        39.176	  1.225e-002 	             	
        39.201	             	  4.402e-001 	
        39.241	  1.216e-002 	             	
        39.265	             	  4.402e-001 	
        39.329	             	  4.401e-001 	
        39.336	  1.229e-002 	             	
        39.393	             	  4.401e-001 	
        39.401	  1.221e-002 	             	
        39.457	             	  4.401e-001 	
        39.464	  1.233e-002 	             	
        39.521	             	  4.401e-001 	
        39.529	  1.223e-002 	             	
        39.585	             	  4.401e-001 	
        39.592	  1.229e-002 	             	
        39.649	             	  4.400e-001 	
        39.657	  1.226e-002 	             	
        39.713	             	  4.400e-001 	
        39.720	  1.222e-002 	             	
        39.777	             	  4.400e-001 	
        39.784	  1.226e-002 	             	
        39.848	  1.223e-002 	             	
        39.873	             	  4.400e-001 	
        39.912	  1.216e-002 	             	
        39.937	             	  4.401e-001 	
        39.977	  1.223e-002 	             	
        40.001	             	  4.401e-001 	
        40.040	  1.214e-002 	             	
        40.065	             	  4.401e-001 	
        40.129	             	  4.401e-001 	
        40.136	  1.220e-002 	             	
        40.193	             	  4.401e-001 	
        40.200	  1.222e-002 	             	
        40.257	             	  4.400e-001 	
        40.264	  1.218e-002 	             	
        40.321	             	  4.400e-001 	
        40.328	  1.216e-002 	             	
        40.385	             	  4.400e-001 	
        40.392	  1.218e-002 	             	
        40.449	             	  4.399e-001 	
        40.456	  1.222e-002 	             	
        40.513	             	  4.399e-001 	
        40.520	  1.216e-002 	             	
        40.577	             	  4.399e-001 	
        40.584	  1.222e-002 	             	
        40.648	  1.238e-002 	             	
        40.673	             	  4.399e-001 	
        40.712	  1.236e-002 	             	
        40.737	             	  4.399e-001 	
        40.776	  1.226e-002 	             	
        40.801	             	  4.400e-001 	
        40.840	  1.225e-002 	             	
        40.865	             	  4.401e-001 	
        40.929	             	  4.402e-001 	
        40.936	  1.218e-002 	             	
        40.993	             	  4.403e-001 	
        41.000	  1.223e-002 	             	
        41.057	             	  4.403e-001 	
        41.064	  1.236e-002 	             	
        41.121	             	  4.403e-001 	
        41.128	  1.240e-002 	             	
        41.185	             	  4.404e-001 	
        41.193	  1.243e-002 	             	
        41.249	             	  4.404e-001 	
        41.256	  1.228e-002 	             	
        41.313	             	  4.405e-001 	
        41.320	  1.243e-002 	             	
        41.377	             	  4.406e-001 	
        41.384	  1.247e-002 	             	
        41.448	  1.240e-002 	             	
        41.473	             	  4.406e-001 	
        41.512	  1.228e-002 	             	
        41.537	             	  4.405e-001 	
        41.576	  1.235e-002 	             	
        41.601	             	  4.404e-001 	
        41.640	  1.238e-002 	             	
        41.665	             	  4.403e-001 	
        41.729	             	  4.403e-001 	
        41.736	  1.237e-002 	             	
        41.793	             	  4.402e-001 	
        41.800	  1.247e-002 	             	
        41.857	             	  4.402e-001 	
        41.864	  1.261e-002 	             	
        41.921	             	  4.402e-001 	
        41.928	  1.257e-002 	             	
        41.985	             	  4.403e-001 	
        41.992	  1.258e-002 	             	
        42.049	             	  4.404e-001 	
        42.056	  1.257e-002 	             	
        42.113	             	  4.405e-001 	
        42.120	  1.258e-002 	             	
        42.177	             	  4.406e-001 	
        42.184	  1.251e-002 	             	
        42.248	  1.256e-002 	             	
        42.273	             	  4.406e-001 	
        42.312	  1.264e-002 	             	
        42.337	             	  4.406e-001 	
        42.376	  1.264e-002 	             	
        42.401	             	  4.406e-001 	
        42.440	  1.273e-002 	             	
        42.465	             	  4.407e-001 	
        42.529	             	  4.407e-001 	
        42.536	  1.260e-002 	             	
        42.593	             	  4.406e-001 	
        42.600	  1.262e-002 	             	
        42.657	             	  4.406e-001 	
        42.664	  1.264e-002 	             	
        42.721	             	  4.406e-001 	
        42.728	  1.274e-002 	             	
        42.785	             	  4.405e-001 	
        42.792	  1.269e-002 	             	
        42.849	             	  4.404e-001 	
        42.856	  1.258e-002 	             	
        42.913	             	  4.404e-001 	
        42.920	  1.266e-002 	             	
        42.977	             	  4.403e-001 	
        42.984	  1.260e-002 	             	
        43.048	  1.273e-002 	             	
        43.073	             	  4.403e-001 	
        43.112	  1.269e-002 	             	
        43.137	             	  4.403e-001 	
        43.176	  1.260e-002 	             	
        43.201	             	  4.403e-001 	
        43.240	  1.258e-002 	             	
        43.265	             	  4.404e-001 	
        43.329	             	  4.405e-001 	
        43.336	  1.267e-002 	             	
        43.393	             	  4.406e-001 	
        43.400	  1.269e-002 	             	
        43.457	             	  4.406e-001 	
        43.464	  1.267e-002 	             	
        43.521	             	  4.406e-001 	
        43.528	  1.267e-002 	             	
        43.585	             	  4.406e-001 	
        43.592	  1.271e-002 	             	
        43.649	             	  4.405e-001 	
        43.656	  1.273e-002 	             	
        43.713	             	  4.405e-001 	
        43.720	  1.261e-002 	             	
        43.777	             	  4.405e-001 	
        43.784	  1.250e-002 	             	
        43.848	  1.253e-002 	             	
        43.873	             	  4.405e-001 	
        43.912	  1.251e-002 	             	
        43.937	             	  4.404e-001 	
        43.976	  1.266e-002 	             	
        44.001	             	  4.403e-001 	
        44.040	  1.256e-002 	             	
        44.065	             	  4.403e-001 	
        44.129	             	  4.403e-001 	
        44.136	  1.250e-002 	             	
        44.193	             	  4.403e-001 	
        44.200	  1.253e-002 	             	
        44.257	             	  4.403e-001 	
        44.264	  1.246e-002 	             	
        44.321	             	  4.403e-001 	
        44.328	  1.238e-002 	             	
        44.385	             	  4.403e-001 	
        44.392	  1.230e-002 	             	
        44.449	             	  4.403e-001 	
        44.456	  1.241e-002 	             	
        44.513	             	  4.403e-001 	
        44.520	  1.246e-002 	             	
        44.577	             	  4.403e-001 	
        44.584	  1.232e-002 	             	
        44.648	  1.209e-002 	             	
        44.673	             	  4.404e-001 	
        44.712	  1.232e-002 	             	
        44.737	             	  4.404e-001 	
        44.776	  1.234e-002 	             	
        44.801	             	  4.403e-001 	
        44.840	  1.225e-002 	             	
        44.865	             	  4.403e-001 	
        44.929	             	  4.404e-001 	
        44.936	  1.230e-002 	             	
        44.993	             	  4.404e-001 	
        45.000	  1.222e-002 	             	
        45.057	             	  4.405e-001 	
        45.064	  1.227e-002 	             	
        45.121	             	  4.405e-001 	
        45.128	  1.221e-002 	             	
        45.185	             	  4.405e-001 	
        45.192	  1.242e-002 	             	
        45.249	             	  4.406e-001 	
        45.256	  1.238e-002 	             	
        45.313	             	  4.405e-001 	
        45.320	  1.230e-002 	             	
        45.377	             	  4.405e-001 	
        45.384	  1.239e-002 	             	
        45.448	  1.233e-002 	             	
        45.473	             	  4.405e-001 	
        45.512	  1.239e-002 	             	
        45.537	             	  4.405e-001 	
        45.576	  1.227e-002 	             	
        45.601	             	  4.407e-001 	
        45.640	  1.231e-002 	             	
        45.665	             	  4.408e-001 	
        45.704	  1.228e-002 	             	
        45.729	             	  4.409e-001 	
        45.793	             	  4.409e-001 	
        45.800	  1.221e-002 	             	
        45.857	             	  4.409e-001 	
        45.864	  1.239e-002 	             	
        45.921	             	  4.409e-001 	
        45.928	  1.230e-002 	             	
        45.985	             	  4.409e-001 	
        45.992	  1.227e-002 	             	
        46.049	             	  4.409e-001 	
        46.056	  1.236e-002 	             	
        46.113	             	  4.409e-001 	
        46.120	  1.237e-002 	             	
        46.177	             	  4.408e-001 	
        46.184	  1.225e-002 	             	
        46.248	  1.231e-002 	             	
        46.273	             	  4.409e-001 	
        46.312	  1.242e-002 	             	
        46.337	             	  4.410e-001 	
        46.376	  1.233e-002 	             	
        46.401	             	  4.410e-001 	
        46.440	  1.237e-002 	             	
        46.465	             	  4.411e-001 	
        46.504	  1.240e-002 	             	
        46.529	             	  4.411e-001 	
        46.593	             	  4.411e-001 	
        46.600	  1.243e-002 	             	
        46.657	             	  4.412e-001 	
        46.664	  1.256e-002 	             	
        46.721	             	  4.412e-001 	
        46.728	  1.252e-002 	             	
        46.785	             	  4.412e-001 	
        46.792	  1.238e-002 	             	
        46.849	             	  4.412e-001 	
        46.856	  1.238e-002 	             	
        46.913	             	  4.412e-001 	
        46.920	  1.250e-002 	             	
        46.977	             	  4.411e-001 	
        46.984	  1.258e-002 	             	
        47.041	             	  4.411e-001 	
        47.048	  1.245e-002 	             	
        47.112	  1.270e-002 	             	
        47.137	             	  4.411e-001 	
        47.176	  1.260e-002 	             	
        47.201	             	  4.412e-001 	
        47.240	  1.252e-002 	             	
        47.265	             	  4.413e-001 	
        47.304	  1.259e-002 	             	
        47.329	             	  4.413e-001 	
        47.393	             	  4.413e-001 	
        47.400	  1.258e-002 	             	
        47.457	             	  4.414e-001 	
        47.464	  1.265e-002 	             	
        47.521	             	  4.415e-001 	
        47.528	  1.267e-002 	             	
        47.585	             	  4.415e-001 	
        47.592	  1.273e-002 	             	
        47.649	             	  4.416e-001 	
        47.656	  1.263e-002 	             	
        47.713	             	  4.417e-001 	
        47.720	  1.270e-002 	             	
        47.777	             	  4.417e-001 	
        47.784	  1.263e-002 	             	
        47.848	  1.264e-002 	             	
        47.873	             	  4.417e-001 	
        47.912	  1.266e-002 	             	
        47.937	             	  4.418e-001 	
        47.976	  1.277e-002 	             	
        48.001	             	  4.417e-001 	
        48.040	  1.276e-002 	             	
        48.065	             	  4.416e-001 	
        48.104	  1.258e-002 	             	
        48.129	             	  4.416e-001 	
        48.193	             	  4.416e-001 	
        48.200	  1.265e-002 	             	
        48.257	             	  4.416e-001 	
        48.264	  1.268e-002 	             	
        48.321	             	  4.416e-001 	
        48.328	  1.275e-002 	             	
        48.385	             	  4.416e-001 	
        48.392	  1.278e-002 	             	
        48.449	             	  4.416e-001 	
        48.456	  1.274e-002 	             	
        48.513	             	  4.416e-001 	
        48.520	  1.274e-002 	             	
        48.577	             	  4.415e-001 	
        48.584	  1.269e-002 	             	
        48.641	             	  4.414e-001 	
        48.648	  1.258e-002 	             	
        48.712	  1.261e-002 	             	
        48.737	             	  4.413e-001 	
        48.776	  1.268e-002 	             	
        48.801	             	  4.412e-001 	
        48.840	  1.270e-002 	             	
        48.865	             	  4.411e-001 	
        48.904	  1.271e-002 	             	
        48.929	             	  4.410e-001 	
        48.993	             	  4.410e-001 	
        49.000	  1.272e-002 	             	
        49.057	             	  4.409e-001 	
        49.064	  1.270e-002 	             	
        49.121	             	  4.410e-001 	
        49.128	  1.260e-002 	             	
        49.185	             	  4.410e-001 	
        49.192	  1.241e-002 	             	
        49.249	             	  4.411e-001 	
        49.256	  1.247e-002 	             	
        49.313	             	  4.411e-001 	
        49.320	  1.233e-002 	             	
        49.377	             	  4.411e-001 	
        49.384	  1.237e-002 	             	
        49.441	             	  4.411e-001 	
        49.448	  1.234e-002 	             	
        49.512	  1.235e-002 	             	
        49.537	             	  4.410e-001 	
        49.576	  1.248e-002 	             	
        49.601	             	  4.408e-001 	
        49.640	  1.248e-002 	             	
        49.665	             	  4.407e-001 	
        49.704	  1.235e-002 	             	
        49.729	             	  4.407e-001 	
        49.793	             	  4.408e-001 	
        49.800	  1.234e-002 	             	
        49.857	             	  4.409e-001 	
        49.864	  1.236e-002 	             	
        49.921	             	  4.409e-001 	
        49.928	  1.223e-002 	             	
        49.985	             	  4.407e-001 	
        49.992	  1.225e-002 	             	
        50.049	             	  4.406e-001 	
        50.056	  1.236e-002 	             	
        50.113	             	  4.405e-001 	
        50.120	  1.235e-002 	             	
        50.177	             	  4.404e-001 	
        50.184	  1.225e-002 	             	
        50.241	             	  4.404e-001 	
        50.248	  1.223e-002 	             	
        50.312	  1.224e-002 	             	
        50.337	             	  4.404e-001 	
        50.376	  1.239e-002 	             	
        50.401	             	  4.405e-001 	
        50.440	  1.231e-002 	             	
        50.465	             	  4.405e-001 	
        50.504	  1.231e-002 	             	
        50.529	             	  4.406e-001 	
        50.593	             	  4.406e-001 	
        50.600	  1.220e-002 	             	
        50.657	             	  4.405e-001 	
        50.664	  1.233e-002 	             	
        50.721	             	  4.404e-001 	
        50.728	  1.239e-002 	             	
        50.785	             	  4.405e-001 	
        50.792	  1.235e-002 	             	
        50.849	             	  4.406e-001 	
        50.856	  1.235e-002 	             	
        50.913	             	  4.406e-001 	
        50.920	  1.237e-002 	             	
        50.977	             	  4.407e-001 	
        50.984	  1.228e-002 	             	
        51.041	             	  4.407e-001 	
        51.048	  1.234e-002 	             	
        51.112	  1.235e-002 	             	
        51.137	             	  4.407e-001 	
        51.176	  1.231e-002 	             	
        51.201	             	  4.407e-001 	
        51.240	  1.216e-002 	             	
        51.265	             	  4.407e-001 	
        51.304	  1.219e-002 	             	
        51.329	             	  4.406e-001 	
        51.393	             	  4.406e-001 	
        51.400	  1.228e-002 	             	
        51.457	             	  4.405e-001 	
        51.464	  1.236e-002 	             	
        51.521	             	  4.405e-001 	
        51.528	  1.210e-002 	             	
        51.585	             	  4.404e-001 	
        51.592	  1.222e-002 	             	
        51.649	             	  4.403e-001 	
        51.656	  1.237e-002 	             	
        51.713	             	  4.403e-001 	
        51.720	  1.236e-002 	             	
        51.777	             	  4.403e-001 	
        51.784	  1.240e-002 	             	
        51.840	             	  4.403e-001 	
        51.848	  1.249e-002 	             	
        51.912	  1.250e-002 	             	
        51.936	             	  4.403e-001 	
        51.976	  1.252e-002 	             	
        52.000	             	  4.404e-001 	
        52.040	  1.247e-002 	             	
        52.064	             	  4.405e-001 	
        52.104	  1.250e-002 	             	
        52.128	             	  4.405e-001 	
        52.193	             	  4.404e-001 	
        52.200	  1.257e-002 	             	
        52.256	             	  4.404e-001 	
        52.264	  1.254e-002 	             	
        52.321	             	  4.403e-001 	
        52.328	  1.258e-002 	             	
        52.385	             	  4.403e-001 	
        52.392	  1.266e-002 	             	
        52.448	             	  4.402e-001 	
        52.456	  1.274e-002 	             	
        52.513	             	  4.401e-001 	
        52.520	  1.267e-002 	             	
        52.576	             	  4.401e-001 	
        52.584	  1.267e-002 	             	
        52.640	             	  4.401e-001 	
        52.648	  1.278e-002 	             	
        52.712	  1.273e-002 	             	
        52.736	             	  4.402e-001 	
        52.776	  1.267e-002 	             	
        52.800	             	  4.402e-001 	
        52.840	  1.269e-002 	             	
        52.864	             	  4.403e-001 	
        52.904	  1.270e-002 	             	
        52.928	             	  4.403e-001 	
        52.992	             	  4.403e-001 	
        53.000	  1.269e-002 	             	
        53.056	             	  4.403e-001 	
        53.064	  1.273e-002 	             	
        53.120	             	  4.403e-001 	
        53.128	  1.267e-002 	             	
        53.184	             	  4.403e-001 	
        53.192	  1.247e-002 	             	
        53.249	             	  4.403e-001 	
        53.257	  1.272e-002 	             	
        53.313	             	  4.403e-001 	
        53.321	  1.270e-002 	             	
        53.377	             	  4.403e-001 	
        53.385	  1.267e-002 	             	
        53.441	             	  4.403e-001 	
        53.449	  1.258e-002 	             	
        53.513	  1.269e-002 	             	
        53.537	             	  4.403e-001 	
        53.577	  1.284e-002 	             	
        53.601	             	  4.404e-001 	
        53.641	  1.254e-002 	             	
        53.665	             	  4.404e-001 	
        53.705	  1.278e-002 	             	
        53.729	             	  4.405e-001 	
        53.793	             	  4.405e-001 	
        53.801	  1.265e-002 	             	
        53.857	             	  4.405e-001 	
        53.865	  1.276e-002 	             	
        53.921	             	  4.405e-001 	
        53.929	  1.280e-002 	             	
        53.985	             	  4.405e-001 	
        53.993	  1.262e-002 	             	
        54.049	             	  4.406e-001 	
        54.057	  1.258e-002 	             	
        54.113	             	  4.405e-001 	
        54.121	  1.249e-002 	             	
        54.177	             	  4.404e-001 	
        54.185	  1.267e-002 	             	
        54.241	             	  4.404e-001 	
        54.249	  1.266e-002 	             	
        54.313	  1.260e-002 	             	
        54.337	             	  4.403e-001 	
        54.377	  1.263e-002 	             	
        54.401	             	  4.403e-001 	
        54.441	  1.255e-002 	             	
        54.465	             	  4.404e-001 	
        54.505	  1.246e-002 	             	
        54.529	             	  4.405e-001 	
        54.593	             	  4.405e-001 	
        54.601	  1.252e-002 	             	
        54.657	             	  4.405e-001 	
        54.665	  1.246e-002 	             	
        54.721	             	  4.405e-001 	
        54.729	  1.237e-002 	             	
        54.785	             	  4.405e-001 	
        54.793	  1.234e-002 	             	
        54.849	             	  4.404e-001 	
        54.857	  1.237e-002 	             	
        54.913	             	  4.405e-001 	
        54.921	  1.228e-002 	             	
        54.977	             	  4.406e-001 	
        54.985	  1.232e-002 	             	
        55.041	             	  4.405e-001 	
        55.049	  1.235e-002 	             	
        55.113	  1.229e-002 	             	
        55.137	             	  4.406e-001 	
        55.177	  1.228e-002 	             	
        55.201	             	  4.406e-001 	
        55.241	  1.228e-002 	             	
        55.265	             	  4.407e-001 	
        55.305	  1.226e-002 	             	
        55.329	             	  4.407e-001 	
        55.393	             	  4.407e-001 	
        55.401	  1.230e-002 	             	
        55.457	             	  4.407e-001 	
        55.465	  1.233e-002 	             	
        55.521	             	  4.407e-001 	
        55.529	  1.231e-002 	             	
        55.585	             	  4.407e-001 	
        55.593	  1.224e-002 	             	
        55.649	             	  4.407e-001 	
        55.657	  1.236e-002 	             	
        55.713	             	  4.407e-001 	
        55.721	  1.238e-002 	             	
        55.777	             	  4.408e-001 	
        55.785	  1.234e-002 	             	
        55.841	             	  4.409e-001 	
        55.849	  1.245e-002 	             	
        55.913	  1.226e-002 	             	
        55.937	             	  4.411e-001 	
        55.977	  1.232e-002 	             	
        56.001	             	  4.412e-001 	
        56.041	  1.236e-002 	             	
        56.065	             	  4.412e-001 	
        56.105	  1.238e-002 	             	
        56.129	             	  4.411e-001 	
        56.193	             	  4.411e-001 	
        56.201	  1.228e-002 	             	
        56.257	             	  4.412e-001 	
        56.265	  1.230e-002 	             	
        56.321	             	  4.412e-001 	
        56.329	  1.244e-002 	             	
        56.385	             	  4.411e-001 	
        56.393	  1.245e-002 	             	
        56.449	             	  4.411e-001 	
        56.457	  1.233e-002 	             	
        56.513	             	  4.410e-001 	
        56.520	  1.238e-002 	             	
        56.577	             	  4.410e-001 	
        56.584	  1.236e-002 	             	
        56.641	             	  4.410e-001 	
        56.648	  1.236e-002 	             	
        56.712	  1.239e-002 	             	
        56.737	             	  4.410e-001 	
        56.776	  1.236e-002 	             	
        56.801	             	  4.411e-001 	
        56.840	  1.227e-002 	             	
        56.865	             	  4.411e-001 	
        56.904	  1.224e-002 	             	
        56.929	             	  4.412e-001 	
        56.993	             	  4.412e-001 	
        57.001	  1.230e-002 	             	
        57.057	             	  4.411e-001 	
        57.064	  1.244e-002 	             	
        57.121	             	  4.411e-001 	
        57.128	  1.236e-002 	             	
        57.185	             	  4.411e-001 	
        57.192	  1.230e-002 	             	
        57.249	             	  4.411e-001 	
        57.256	  1.230e-002 	             	
        57.313	             	  4.411e-001 	
        57.320	  1.231e-002 	             	
        57.377	             	  4.411e-001 	
        57.384	  1.221e-002 	             	
        57.441	             	  4.412e-001 	
        57.448	  1.235e-002 	             	
        57.512	  1.210e-002 	             	
        57.537	             	  4.412e-001 	
        57.577	  1.224e-002 	             	
        57.601	             	  4.412e-001 	
        57.640	  1.231e-002 	             	
        57.665	             	  4.413e-001 	
        57.704	  1.229e-002 	             	
        57.729	             	  4.413e-001 	
        57.769	  1.237e-002 	             	
        57.793	             	  4.413e-001 	
        57.857	             	  4.413e-001 	
        57.864	  1.244e-002 	             	
        57.921	             	  4.413e-001 	
        57.928	  1.238e-002 	             	
        57.985	             	  4.414e-001 	
        57.992	  1.234e-002 	             	
        58.049	             	  4.415e-001 	
        58.056	  1.226e-002 	             	
        58.113	             	  4.415e-001 	
        58.120	  1.230e-002 	             	
        58.177	             	  4.415e-001 	
        58.184	  1.208e-002 	             	
        58.241	             	  4.414e-001 	
        58.248	  1.233e-002 	             	
        58.312	  1.227e-002 	             	
        58.337	             	  4.412e-001 	
        58.376	  1.237e-002 	             	
        58.401	             	  4.411e-001 	
        58.440	  1.219e-002 	             	
        58.465	             	  4.410e-001 	
        58.504	  1.214e-002 	             	
        58.529	             	  4.410e-001 	
        58.568	  1.216e-002 	             	
        58.593	             	  4.410e-001 	
        58.657	             	  4.410e-001 	
        58.664	  1.245e-002 	             	
        58.721	             	  4.409e-001 	
        58.729	  1.231e-002 	             	
        58.785	             	  4.409e-001 	
        58.792	  1.229e-002 	             	
        58.849	             	  4.409e-001 	
        58.856	  1.233e-002 	             	
        58.913	             	  4.410e-001 	
        58.920	  1.234e-002 	             	
        58.977	             	  4.410e-001 	
        58.984	  1.221e-002 	             	
        59.041	             	  4.411e-001 	
        59.048	  1.243e-002 	             	
        59.112	  1.243e-002 	             	
        59.137	             	  4.411e-001 	
        59.176	  1.227e-002 	             	
        59.201	             	  4.411e-001 	
        59.240	  1.236e-002 	             	
        59.265	             	  4.411e-001 	
        59.304	  1.212e-002 	             	
        59.329	             	  4.411e-001 	
        59.368	  1.225e-002 	             	
        59.393	             	  4.410e-001 	
        59.457	             	  4.410e-001 	
        59.464	  1.228e-002 	             	
        59.521	             	  4.409e-001 	
        59.528	  1.227e-002 	             	
        59.585	             	  4.409e-001 	
        59.592	  1.229e-002 	             	
        59.649	             	  4.409e-001 	
        59.656	  1.234e-002 	             	
        59.713	             	  4.410e-001 	
        59.720	  1.234e-002 	             	
        59.777	             	  4.410e-001 	
        59.784	  1.225e-002 	             	
        59.841	             	  4.411e-001 	
        59.848	  1.231e-002 	             	
        59.912	  1.220e-002 	             	
        59.937	             	  4.411e-001 	
        59.976	  1.231e-002 	             	
        60.001	             	  4.411e-001 	
        60.040	  1.215e-002 	             	
        60.065	             	  4.411e-001 	
        60.104	  1.228e-002 	             	
        60.129	             	  4.411e-001 	
        60.168	  1.235e-002 	             	
        60.193	             	  4.411e-001 	
        60.257	             	  4.410e-001 	
        60.264	  1.245e-002 	             	
        60.321	             	  4.409e-001 	
        60.328	  1.220e-002 	             	
        60.385	             	  4.409e-001 	
        60.392	  1.232e-002 	             	
        60.449	             	  4.409e-001 	
        60.456	  1.249e-002 	             	
        60.513	             	  4.409e-001 	
        60.520	  1.231e-002 	             	
        60.577	             	  4.409e-001 	
        60.584	  1.228e-002 	             	
        60.641	             	  4.409e-001 	
        60.648	  1.222e-002 	             	
        60.705	             	  4.409e-001 	
        60.712	  1.222e-002 	             	
        60.776	  1.233e-002 	             	
        60.801	             	  4.409e-001 	
        60.840	  1.220e-002 	             	
        60.865	             	  4.408e-001 	
        60.904	  1.235e-002 	             	
        60.929	             	  4.408e-001 	
        60.968	  1.206e-002 	             	
        60.993	             	  4.408e-001 	
        61.057	             	  4.408e-001 	
        61.064	  1.215e-002 	             	
        61.121	             	  4.408e-001 	
        61.128	  1.228e-002 	             	
        61.185	             	  4.407e-001 	
        61.192	  1.227e-002 	             	
        61.249	             	  4.407e-001 	
        61.256	  1.223e-002 	             	
        61.313	             	  4.407e-001 	
        61.320	  1.227e-002 	             	
        61.377	             	  4.408e-001 	
        61.384	  1.235e-002 	             	
        61.441	             	  4.407e-001 	
        61.448	  1.241e-002 	             	
        61.505	             	  4.408e-001 	
        61.512	  1.243e-002 	             	
        61.576	  1.235e-002 	             	
        61.601	             	  4.408e-001 	
        61.640	  1.219e-002 	             	
        61.665	             	  4.408e-001 	
        61.704	  1.239e-002 	             	
        61.729	             	  4.408e-001 	
        61.768	  1.246e-002 	             	
        61.793	             	  4.408e-001 	
        61.857	             	  4.407e-001 	
        61.864	  1.251e-002 	             	
        61.921	             	  4.408e-001 	
        61.928	  1.258e-002 	             	
        61.985	             	  4.408e-001 	
        61.992	  1.253e-002 	             	
        62.049	             	  4.408e-001 	
        62.056	  1.254e-002 	             	
        62.113	             	  4.409e-001 	
        62.120	  1.239e-002 	             	
        62.177	             	  4.410e-001 	
        62.184	  1.254e-002 	             	
        62.241	             	  4.410e-001 	
        62.248	  1.266e-002 	             	
        62.305	             	  4.410e-001 	
        62.312	  1.263e-002 	             	
        62.376	  1.276e-002 	             	
        62.401	             	  4.411e-001 	
        62.440	  1.274e-002 	             	
        62.465	             	  4.413e-001 	
        62.504	  1.271e-002 	             	
        62.529	             	  4.414e-001 	
        62.568	  1.260e-002 	             	
        62.593	             	  4.415e-001 	
        62.657	             	  4.416e-001 	
        62.664	  1.257e-002 	             	
        62.721	             	  4.415e-001 	
        62.728	  1.270e-002 	             	
        62.785	             	  4.415e-001 	
        62.792	  1.269e-002 	             	
        62.849	             	  4.414e-001 	
        62.856	  1.265e-002 	             	
        62.913	             	  4.414e-001 	
        62.920	  1.272e-002 	             	
        62.977	             	  4.414e-001 	
        62.984	  1.267e-002 	             	
        63.041	             	  4.414e-001 	
        63.048	  1.268e-002 	             	
        63.105	             	  4.414e-001 	
        63.112	  1.268e-002 	             	
        63.176	  1.269e-002 	             	
        63.201	             	  4.415e-001 	
        63.240	  1.274e-002 	             	
        63.265	             	  4.414e-001 	
        63.304	  1.260e-002 	             	
        63.329	             	  4.414e-001 	
        63.368	  1.275e-002 	             	
        63.393	             	  4.413e-001 	
        63.457	             	  4.413e-001 	
        63.464	  1.270e-002 	             	
        63.521	             	  4.413e-001 	
        63.528	  1.254e-002 	             	
        63.585	             	  4.413e-001 	
        63.592	  1.244e-002 	             	
        63.649	             	  4.413e-001 	
        63.656	  1.269e-002 	             	
        63.713	             	  4.412e-001 	
        63.720	  1.263e-002 	             	
        63.777	             	  4.411e-001 	
        63.784	  1.258e-002 	             	
        63.841	             	  4.411e-001 	
        63.848	  1.269e-002 	             	
        63.905	             	  4.411e-001 	
        63.912	  1.275e-002 	             	
        63.976	  1.270e-002 	             	
        64.001	             	  4.412e-001 	
        64.040	  1.271e-002 	             	
        64.065	             	  4.413e-001 	
        64.104	  1.271e-002 	             	
        64.129	             	  4.414e-001 	
        64.168	  1.264e-002 	             	
        64.193	             	  4.415e-001 	
        64.257	             	  4.416e-001 	
        64.264	  1.253e-002 	             	
        64.321	             	  4.416e-001 	
        64.328	  1.247e-002 	             	
        64.385	             	  4.415e-001 	
        64.392	  1.257e-002 	             	
        64.449	             	  4.415e-001 	
        64.456	  1.252e-002 	             	
        64.513	             	  4.414e-001 	
        64.520	  1.252e-002 	             	
        64.577	             	  4.413e-001 	
        64.584	  1.253e-002 	             	
        64.641	             	  4.413e-001 	
        64.648	  1.255e-002 	             	
        64.705	             	  4.413e-001 	
        64.712	  1.252e-002 	             	
        64.776	  1.241e-002 	             	
        64.801	             	  4.414e-001 	
        64.840	  1.239e-002 	             	
        64.865	             	  4.414e-001 	
        64.904	  1.220e-002 	             	
        64.929	             	  4.415e-001 	
        64.968	  1.228e-002 	             	
        64.993	             	  4.414e-001 	
        65.057	             	  4.413e-001 	
        65.064	  1.243e-002 	             	
        65.121	             	  4.413e-001 	
        65.128	  1.237e-002 	             	
        65.185	             	  4.412e-001 	
        65.192	  1.239e-002 	             	
        65.249	             	  4.412e-001 	
        65.256	  1.229e-002 	             	
        65.313	             	  4.412e-001 	
        65.320	  1.232e-002 	             	
        65.377	             	  4.412e-001 	
        65.384	  1.240e-002 	             	
        65.441	             	  4.412e-001 	
        65.448	  1.239e-002 	             	
        65.505	             	  4.412e-001 	
        65.512	  1.245e-002 	             	
        65.576	  1.236e-002 	             	
        65.601	             	  4.413e-001 	
        65.640	  1.239e-002 	             	
        65.665	             	  4.413e-001 	
        65.704	  1.240e-002 	             	
        65.729	             	  4.414e-001 	
        65.768	  1.240e-002 	             	
        65.793	             	  4.414e-001 	
        65.857	             	  4.415e-001 	
        65.864	  1.240e-002 	             	
        65.921	             	  4.416e-001 	
        65.928	  1.234e-002 	             	
        65.985	             	  4.416e-001 	
        65.992	  1.222e-002 	             	
        66.049	             	  4.416e-001 	
        66.056	  1.235e-002 	             	
        66.113	             	  4.415e-001 	
        66.120	  1.238e-002 	             	
        66.177	             	  4.414e-001 	
        66.184	  1.238e-002 	             	
        66.241	             	  4.414e-001 	
        66.248	  1.238e-002 	             	
        66.305	             	  4.413e-001 	
        66.312	  1.239e-002 	             	
        66.376	  1.240e-002 	             	
        66.401	             	  4.413e-001 	
        66.440	  1.245e-002 	             	
        66.465	             	  4.413e-001 	
        66.504	  1.248e-002 	             	
        66.529	             	  4.412e-001 	
        66.568	  1.237e-002 	             	
        66.593	             	  4.412e-001 	
        66.657	             	  4.413e-001 	
        66.664	  1.241e-002 	             	
        66.721	             	  4.413e-001 	
        66.728	  1.247e-002 	             	
        66.785	             	  4.413e-001 	
        66.792	  1.248e-002 	             	
        66.849	             	  4.413e-001 	
        66.856	  1.250e-002 	             	
        66.913	             	  4.413e-001 	
        66.920	  1.249e-002 	             	
        66.977	             	  4.413e-001 	
        66.984	  1.243e-002 	             	
        67.041	             	  4.412e-001 	
        67.048	  1.248e-002 	             	
        67.105	             	  4.412e-001 	
        67.112	  1.251e-002 	             	
        67.176	  1.253e-002 	             	
        67.201	             	  4.411e-001 	
        67.240	  1.256e-002 	             	
        67.265	             	  4.410e-001 	
        67.304	  1.258e-002 	             	
        67.329	             	  4.410e-001 	
        67.368	  1.257e-002 	             	
        67.393	             	  4.410e-001 	
        67.457	             	  4.409e-001 	
        67.464	  1.256e-002 	             	
        67.521	             	  4.409e-001 	
        67.528	  1.264e-002 	             	
        67.585	             	  4.409e-001 	
        67.592	  1.261e-002 	             	
        67.649	             	  4.409e-001 	
        67.656	  1.264e-002 	             	
        67.713	             	  4.408e-001 	
        67.720	  1.272e-002 	             	
        67.777	             	  4.407e-001 	
        67.784	  1.265e-002 	             	
        67.841	             	  4.407e-001 	
        67.848	  1.265e-002 	             	
        67.905	             	  4.406e-001 	
        67.912	  1.271e-002 	             	
        67.976	  1.266e-002 	             	
        68.001	             	  4.406e-001 	
        68.040	  1.268e-002 	             	
        68.065	             	  4.406e-001 	
        68.104	  1.266e-002 	             	
        68.129	             	  4.405e-001 	
        68.168	  1.264e-002 	             	
        68.193	             	  4.405e-001 	
        68.257	             	  4.404e-001 	
        68.264	  1.269e-002 	             	
        68.320	             	  4.404e-001 	
        68.328	  1.268e-002 	             	
        68.385	             	  4.406e-001 	
        68.392	  1.274e-002 	             	
        68.449	             	  4.406e-001 	
        68.456	  1.269e-002 	             	
        68.513	             	  4.406e-001 	
        68.520	  1.271e-002 	             	
        68.577	             	  4.406e-001 	
        68.584	  1.272e-002 	             	
        68.641	             	  4.407e-001 	
        68.648	  1.272e-002 	             	
        68.705	             	  4.407e-001 	
        68.712	  1.271e-002 	             	
        68.776	  1.276e-002 	             	
        68.801	             	  4.407e-001 	
        68.840	  1.267e-002 	             	
        68.864	             	  4.407e-001 	
        68.904	  1.269e-002 	             	
        68.929	             	  4.406e-001 	
        68.968	  1.279e-002 	             	
        68.992	             	  4.405e-001 	
        69.056	             	  4.404e-001 	
        69.064	  1.269e-002 	             	
        69.120	             	  4.404e-001 	
        69.128	  1.269e-002 	             	
        69.185	             	  4.405e-001 	
        69.192	  1.265e-002 	             	
        69.249	             	  4.405e-001 	
        69.256	  1.262e-002 	             	
        69.312	             	  4.404e-001 	
        69.320	  1.264e-002 	             	
        69.377	             	  4.404e-001 	
        69.384	  1.263e-002 	             	
        69.441	             	  4.403e-001 	
        69.448	  1.252e-002 	             	
        69.505	             	  4.403e-001 	
        69.512	  1.265e-002 	             	
        69.576	  1.267e-002 	             	
        69.600	             	  4.403e-001 	
        69.640	  1.258e-002 	             	
        69.664	             	  4.403e-001 	
        69.704	  1.265e-002 	             	
        69.728	             	  4.404e-001 	
        69.768	  1.255e-002 	             	
        69.792	             	  4.404e-001 	
        69.856	             	  4.405e-001 	
        69.864	  1.260e-002 	             	
        69.921	             	  4.405e-001 	
        69.928	  1.244e-002 	             	
        69.985	             	  4.404e-001 	
        69.992	  1.253e-002 	             	
        70.048	             	  4.404e-001 	
        70.056	  1.248e-002 	             	
        70.112	             	  4.404e-001 	
        70.120	  1.251e-002 	             	
        70.176	             	  4.403e-001 	
        70.184	  1.247e-002 	             	
        70.240	             	  4.402e-001 	
        70.248	  1.241e-002 	             	
        70.304	             	  4.401e-001 	
        70.312	  1.243e-002 	             	
        70.376	  1.247e-002 	             	
        70.400	             	  4.401e-001 	
        70.440	  1.241e-002 	             	
        70.464	             	  4.402e-001 	
        70.504	  1.242e-002 	             	
        70.528	             	  4.402e-001 	
        70.568	  1.244e-002 	             	
        70.593	             	  4.402e-001 	
        70.632	  1.245e-002 	             	
        70.656	             	  4.402e-001 	
        70.721	             	  4.403e-001 	
        70.729	  1.251e-002 	             	
        70.786	             	  4.403e-001 	
        70.793	  1.243e-002 	             	
        70.849	             	  4.403e-001 	
        70.857	  1.237e-002 	             	
        70.913	             	  4.402e-001 	
        70.921	  1.242e-002 	             	
        70.977	             	  4.402e-001 	
        70.985	  1.241e-002 	             	
        71.041	             	  4.401e-001 	
        71.049	  1.248e-002 	             	
        71.105	             	  4.399e-001 	
        71.113	  1.242e-002 	             	
        71.177	  1.244e-002 	             	
        71.201	             	  4.399e-001 	
        71.241	  1.248e-002 	             	
        71.265	             	  4.398e-001 	
        71.305	  1.245e-002 	             	
        71.329	             	  4.398e-001 	
        71.369	  1.250e-002 	             	
        71.393	             	  4.398e-001 	
        71.433	  1.248e-002 	             	
        71.457	             	  4.398e-001 	
        71.521	             	  4.399e-001 	
        71.529	  1.236e-002 	             	
        71.585	             	  4.399e-001 	
        71.593	  1.242e-002 	             	
        71.649	             	  4.399e-001 	
        71.657	  1.245e-002 	             	
        71.713	             	  4.400e-001 	
        71.721	  1.239e-002 	             	
        71.778	             	  4.400e-001 	
        71.785	  1.255e-002 	             	
        71.842	             	  4.400e-001 	
        71.849	  1.234e-002 	             	
        71.905	             	  4.400e-001 	
        71.913	  1.245e-002 	             	
        71.977	  1.252e-002 	             	
        72.001	             	  4.400e-001 	
        72.041	  1.252e-002 	             	
        72.065	             	  4.400e-001 	
        72.105	  1.247e-002 	             	
        72.129	             	  4.400e-001 	
        72.169	  1.247e-002 	             	
        72.193	             	  4.400e-001 	
        72.233	  1.249e-002 	             	
        72.257	             	  4.400e-001 	
        72.321	             	  4.400e-001 	
        72.329	  1.249e-002 	             	
        72.385	             	  4.400e-001 	
        72.393	  1.253e-002 	             	
        72.449	             	  4.401e-001 	
        72.457	  1.254e-002 	             	
        72.513	             	  4.401e-001 	
        72.521	  1.256e-002 	             	
        72.577	             	  4.401e-001 	
        72.585	  1.262e-002 	             	
        72.641	             	  4.402e-001 	
        72.649	  1.268e-002 	             	
        72.705	             	  4.402e-001 	
        72.713	  1.274e-002 	             	
        72.777	  1.260e-002 	             	
        72.801	             	  4.403e-001 	
        72.841	  1.263e-002 	             	
        72.865	             	  4.402e-001 	
        72.905	  1.254e-002 	             	
        72.929	             	  4.401e-001 	
        72.969	  1.269e-002 	             	
        72.993	             	  4.400e-001 	
        73.033	  1.267e-002 	             	
        73.057	             	  4.399e-001 	
        73.121	             	  4.399e-001 	
        73.129	  1.270e-002 	             	
        73.185	             	  4.399e-001 	
        73.193	  1.277e-002 	             	
        73.249	             	  4.399e-001 	
        73.257	  1.269e-002 	             	
        73.313	             	  4.399e-001 	
        73.321	  1.266e-002 	             	
        73.377	             	  4.399e-001 	
        73.385	  1.269e-002 	             	
        73.441	             	  4.399e-001 	
        73.449	  1.267e-002 	             	
        73.505	             	  4.399e-001 	
        73.513	  1.270e-002 	             	
        73.569	             	  4.399e-001 	
        73.577	  1.275e-002 	             	
        73.641	  1.278e-002 	             	
        73.665	             	  4.400e-001 	
        73.705	  1.268e-002 	             	
        73.729	             	  4.400e-001 	
        73.769	  1.277e-002 	             	
        73.793	             	  4.399e-001 	
        73.833	  1.267e-002 	             	
        73.857	             	  4.399e-001 	
        73.921	             	  4.398e-001 	
        73.929	  1.260e-002 	             	
        73.985	             	  4.398e-001 	
        73.993	  1.271e-002 	             	
        74.049	             	  4.398e-001 	
        74.057	  1.268e-002 	             	
        74.113	             	  4.398e-001 	
        74.120	  1.278e-002 	             	
        74.177	             	  4.398e-001 	
        74.185	  1.268e-002 	             	
        74.241	             	  4.398e-001 	
        74.248	  1.269e-002 	             	
        74.305	             	  4.399e-001 	
        74.313	  1.272e-002 	             	
        74.369	             	  4.399e-001 	
        74.376	  1.270e-002 	             	
        74.441	  1.265e-002 	             	
        74.465	             	  4.399e-001 	
        74.505	  1.269e-002 	             	
        74.529	             	  4.400e-001 	
        74.569	  1.254e-002 	             	
        74.593	             	  4.400e-001 	
        74.633	  1.257e-002 	             	
        74.657	             	  4.401e-001 	
        74.721	             	  4.401e-001 	
        74.728	  1.259e-002 	             	
        74.785	             	  4.401e-001 	
        74.792	  1.253e-002 	             	
        74.849	             	  4.401e-001 	
        74.856	  1.262e-002 	             	
        74.913	             	  4.401e-001 	
        74.921	  1.248e-002 	             	
        74.977	             	  4.401e-001 	
        74.984	  1.258e-002 	             	
        75.041	             	  4.402e-001 	
        75.049	  1.245e-002 	             	
        75.105	             	  4.403e-001 	
        75.113	  1.236e-002 	             	
        75.169	             	  4.403e-001 	
        75.176	  1.230e-002 	             	
        75.240	  1.243e-002 	             	
        75.265	             	  4.403e-001 	
        75.304	  1.246e-002 	             	
        75.329	             	  4.402e-001 	
        75.368	  1.247e-002 	             	
        75.393	             	  4.402e-001 	
        75.432	  1.246e-002 	             	
        75.457	             	  4.403e-001 	
        75.521	             	  4.403e-001 	
        75.528	  1.242e-002 	             	
        75.585	             	  4.404e-001 	
        75.592	  1.238e-002 	             	
        75.649	             	  4.404e-001 	
        75.656	  1.238e-002 	             	
        75.713	             	  4.404e-001 	
        75.720	  1.246e-002 	             	
        75.777	             	  4.404e-001 	
        75.784	  1.251e-002 	             	
        75.841	             	  4.404e-001 	
        75.848	  1.241e-002 	             	
        75.905	             	  4.404e-001 	
        75.912	  1.246e-002 	             	
        75.969	             	  4.404e-001 	
        75.976	  1.241e-002 	             	
        76.040	  1.249e-002 	             	
        76.065	             	  4.404e-001 	
        76.104	  1.248e-002 	             	
        76.129	             	  4.404e-001 	
        76.168	  1.242e-002 	             	
        76.193	             	  4.405e-001 	
        76.232	  1.244e-002 	             	
        76.257	             	  4.405e-001 	
        76.321	             	  4.405e-001 	
        76.328	  1.243e-002 	             	
        76.385	             	  4.405e-001 	
        76.392	  1.250e-002 	             	
        76.449	             	  4.404e-001 	
        76.456	  1.244e-002 	             	
        76.513	             	  4.404e-001 	
        76.520	  1.235e-002 	             	
        76.577	             	  4.405e-001 	
        76.584	  1.239e-002 	             	
        76.641	             	  4.405e-001 	
        76.648	  1.241e-002 	             	
        76.705	             	  4.406e-001 	
        76.712	  1.239e-002 	             	
        76.769	             	  4.405e-001 	
        76.776	  1.236e-002 	             	
        76.840	  1.241e-002 	             	
        76.865	             	  4.405e-001 	
        76.904	  1.235e-002 	             	
        76.929	             	  4.405e-001 	
        76.969	  1.239e-002 	             	
        76.993	             	  4.405e-001 	
        77.032	  1.245e-002 	             	
        77.057	             	  4.404e-001 	
        77.121	             	  4.404e-001 	
        77.128	  1.243e-002 	             	
        77.185	             	  4.404e-001 	
        77.192	  1.243e-002 	             	
        77.249	             	  4.405e-001 	
        77.256	  1.247e-002 	             	
        77.313	             	  4.405e-001 	
        77.320	  1.255e-002 	             	
        77.377	             	  4.405e-001 	
        77.384	  1.245e-002 	             	
        77.441	             	  4.406e-001 	
        77.448	  1.252e-002 	             	
        77.505	             	  4.406e-001 	
        77.512	  1.251e-002 	             	
        77.569	             	  4.407e-001 	
        77.576	  1.240e-002 	             	
        77.640	  1.244e-002 	             	
        77.665	             	  4.408e-001 	
        77.704	  1.258e-002 	             	
        77.729	             	  4.408e-001 	
        77.768	  1.250e-002 	             	
        77.793	             	  4.407e-001 	
        77.832	  1.237e-002 	             	
        77.857	             	  4.407e-001 	
        77.921	             	  4.407e-001 	
        77.928	  1.257e-002 	             	
        77.985	             	  4.407e-001 	
        77.992	  1.263e-002 	             	
        78.049	             	  4.407e-001 	
        78.056	  1.260e-002 	             	
        78.113	             	  4.408e-001 	
        78.120	  1.253e-002 	             	
        78.177	             	  4.408e-001 	
        78.184	  1.259e-002 	             	
        78.241	             	  4.409e-001 	
        78.248	  1.257e-002 	             	
        78.305	             	  4.409e-001 	
        78.312	  1.263e-002 	             	
        78.369	             	  4.409e-001 	
        78.376	  1.261e-002 	             	
        78.440	  1.262e-002 	             	
        78.465	             	  4.409e-001 	
        78.504	  1.260e-002 	             	
        78.529	             	  4.409e-001 	
        78.568	  1.258e-002 	             	
        78.593	             	  4.409e-001 	
        78.632	  1.266e-002 	             	
        78.657	             	  4.410e-001 	
        78.721	             	  4.410e-001 	
        78.728	  1.272e-002 	             	
        78.785	             	  4.410e-001 	
        78.792	  1.261e-002 	             	
        78.849	             	  4.410e-001 	
        78.856	  1.252e-002 	             	
        78.913	             	  4.410e-001 	
        78.920	  1.262e-002 	             	
        78.977	             	  4.410e-001 	
        78.984	  1.266e-002 	             	
        79.041	             	  4.411e-001 	
        79.048	  1.275e-002 	             	
        79.105	             	  4.411e-001 	
        79.112	  1.252e-002 	             	
        79.169	             	  4.410e-001 	
        79.176	  1.254e-002 	             	
        79.240	  1.266e-002 	             	
        79.265	             	  4.410e-001 	
        79.304	  1.267e-002 	             	
        79.329	             	  4.410e-001 	
        79.368	  1.261e-002 	             	
        79.393	             	  4.410e-001 	
        79.432	  1.247e-002 	             	
        79.457	             	  4.410e-001 	
        79.521	             	  4.410e-001 	
        79.528	  1.265e-002 	             	
        79.585	             	  4.410e-001 	
        79.592	  1.246e-002 	             	
        79.649	             	  4.409e-001 	
        79.656	  1.245e-002 	             	
        79.713	             	  4.408e-001 	
        79.720	  1.261e-002 	             	
        79.777	             	  4.408e-001 	
        79.784	  1.264e-002 	             	
        79.841	             	  4.408e-001 	
        79.848	  1.253e-002 	             	
        79.905	             	  4.408e-001 	
        79.912	  1.260e-002 	             	
        79.969	             	  4.409e-001 	
        79.976	  1.252e-002 	             	
        80.040	  1.253e-002 	             	
        80.065	             	  4.410e-001 	
        80.104	  1.251e-002 	             	
        80.129	             	  4.411e-001 	
        80.168	  1.236e-002 	             	
        80.193	             	  4.411e-001 	
        80.232	  1.243e-002 	             	
        80.257	             	  4.412e-001 	
        80.321	             	  4.412e-001 	
        80.328	  1.242e-002 	             	
        80.385	             	  4.412e-001 	
        80.392	  1.238e-002 	             	
        80.449	             	  4.411e-001 	
        80.456	  1.244e-002 	             	
        80.513	             	  4.410e-001 	
        80.520	  1.245e-002 	             	
        80.577	             	  4.409e-001 	
        80.584	  1.244e-002 	             	
        80.641	             	  4.409e-001 	
        80.648	  1.247e-002 	             	
        80.705	             	  4.409e-001 	
        80.712	  1.241e-002 	             	
        80.769	             	  4.409e-001 	
        80.776	  1.240e-002 	             	
        80.840	  1.239e-002 	             	
        80.865	             	  4.409e-001 	
        80.904	  1.238e-002 	             	
        80.929	             	  4.409e-001 	
        80.968	  1.239e-002 	             	
        80.993	             	  4.410e-001 	
        81.032	  1.249e-002 	             	
        81.057	             	  4.410e-001 	
        81.121	             	  4.410e-001 	
        81.128	  1.251e-002 	             	
        81.185	             	  4.410e-001 	
        81.192	  1.248e-002 	             	
        81.249	             	  4.410e-001 	
        81.256	  1.250e-002 	             	
        81.313	             	  4.410e-001 	
        81.320	  1.236e-002 	             	
        81.377	             	  4.411e-001 	
        81.384	  1.235e-002 	             	
        81.441	             	  4.411e-001 	
        81.448	  1.232e-002 	             	
        81.505	             	  4.410e-001 	
        81.512	  1.250e-002 	             	
        81.569	             	  4.409e-001 	
        81.576	  1.246e-002 	             	
        81.640	  1.243e-002 	             	
        81.665	             	  4.408e-001 	
        81.704	  1.246e-002 	             	
        81.729	             	  4.408e-001 	
        81.768	  1.239e-002 	             	
        81.793	             	  4.408e-001 	
        81.832	  1.254e-002 	             	
        81.857	             	  4.409e-001 	
        81.921	             	  4.409e-001 	
        81.928	  1.239e-002 	             	
        81.985	             	  4.409e-001 	
        81.992	  1.237e-002 	             	
        82.049	             	  4.410e-001 	
        82.056	  1.233e-002 	             	
        82.113	             	  4.410e-001 	
        82.120	  1.238e-002 	             	
        82.177	             	  4.410e-001 	
        82.184	  1.237e-002 	             	
        82.241	             	  4.411e-001 	
        82.248	  1.240e-002 	             	
        82.305	             	  4.411e-001 	
        82.312	  1.241e-002 	             	
        82.369	             	  4.411e-001 	
        82.376	  1.245e-002 	             	
        82.440	  1.246e-002 	             	
        82.465	             	  4.410e-001 	
        82.504	  1.243e-002 	             	
        82.529	             	  4.409e-001 	
        82.568	  1.246e-002 	             	
        82.593	             	  4.409e-001 	
        82.632	  1.246e-002 	             	
        82.657	             	  4.408e-001 	
        82.721	             	  4.408e-001 	
        82.728	  1.240e-002 	             	
        82.785	             	  4.408e-001 	
        82.792	  1.237e-002 	             	
        82.849	             	  4.408e-001 	
        82.856	  1.247e-002 	             	
        82.913	             	  4.408e-001 	
        82.920	  1.255e-002 	             	
        82.977	             	  4.407e-001 	
        82.984	  1.261e-002 	             	
        83.041	             	  4.407e-001 	
        83.048	  1.259e-002 	             	
        83.105	             	  4.407e-001 	
        83.112	  1.262e-002 	             	
        83.169	             	  4.406e-001 	
        83.176	  1.256e-002 	             	
        83.240	  1.267e-002 	             	
        83.265	             	  4.406e-001 	
        83.304	  1.265e-002 	             	
        83.329	             	  4.406e-001 	
        83.368	  1.263e-002 	             	
        83.393	             	  4.406e-001 	
        83.432	  1.255e-002 	             	
        83.457	             	  4.406e-001 	
        83.521	             	  4.406e-001 	
        83.528	  1.255e-002 	             	
        83.585	             	  4.406e-001 	
        83.592	  1.242e-002 	             	
        83.649	             	  4.405e-001 	
        83.656	  1.257e-002 	             	
        83.713	             	  4.405e-001 	
        83.720	  1.265e-002 	             	
        83.777	             	  4.405e-001 	
        83.784	  1.257e-002 	             	
        83.841	             	  4.405e-001 	
        83.848	  1.252e-002 	             	
        83.905	             	  4.405e-001 	
        83.912	  1.258e-002 	             	
        83.969	             	  4.405e-001 	
        83.976	  1.265e-002 	             	
        84.033	             	  4.406e-001 	
        84.040	  1.257e-002 	             	
        84.104	  1.261e-002 	             	
        84.129	             	  4.406e-001 	
        84.168	  1.262e-002 	             	
        84.193	             	  4.407e-001 	
        84.232	  1.257e-002 	             	
        84.257	             	  4.407e-001 	
        84.296	  1.255e-002 	             	
        84.321	             	  4.407e-001 	
        84.385	             	  4.408e-001 	
        84.392	  1.257e-002 	             	
        84.449	             	  4.409e-001 	
        84.456	  1.254e-002 	             	
        84.513	             	  4.408e-001 	
        84.520	  1.252e-002 	             	
        84.577	             	  4.408e-001 	
        84.584	  1.252e-002 	             	
        84.641	             	  4.407e-001 	
        84.648	  1.247e-002 	             	
        84.705	             	  4.406e-001 	
        84.712	  1.250e-002 	             	
        84.769	             	  4.405e-001 	
        84.776	  1.259e-002 	             	
        84.833	             	  4.404e-001 	
        84.840	  1.248e-002 	             	
        84.904	  1.249e-002 	             	
        84.929	             	  4.403e-001 	
        84.968	  1.242e-002 	             	
        84.993	             	  4.402e-001 	
        85.032	  1.259e-002 	             	
        85.057	             	  4.402e-001 	
        85.096	  1.269e-002 	             	
        85.121	             	  4.402e-001 	
        85.185	             	  4.403e-001 	
        85.192	  1.260e-002 	             	
        85.249	             	  4.404e-001 	
        85.256	  1.257e-002 	             	
        85.313	             	  4.406e-001 	
        85.320	  1.251e-002 	             	
        85.377	             	  4.406e-001 	
        85.384	  1.251e-002 	             	
        85.441	             	  4.406e-001 	
        85.448	  1.256e-002 	             	
        85.505	             	  4.405e-001 	
        85.512	  1.250e-002 	             	
        85.569	             	  4.405e-001 	
        85.576	  1.245e-002 	             	
        85.633	             	  4.404e-001 	
        85.640	  1.250e-002 	             	
        85.704	  1.241e-002 	             	
        85.729	             	  4.404e-001 	
        85.768	  1.240e-002 	             	
        85.793	             	  4.404e-001 	
        85.832	  1.240e-002 	             	
        85.857	             	  4.404e-001 	
        85.896	  1.232e-002 	             	
        85.921	             	  4.403e-001 	
        85.985	             	  4.403e-001 	
        85.992	  1.236e-002 	             	
        86.049	             	  4.403e-001 	
        86.056	  1.237e-002 	             	
        86.113	             	  4.403e-001 	
        86.120	  1.236e-002 	             	
        86.177	             	  4.402e-001 	
        86.184	  1.223e-002 	             	
        86.241	             	  4.401e-001 	
        86.248	  1.233e-002 	             	
        86.305	             	  4.401e-001 	
        86.312	  1.230e-002 	             	
        86.369	             	  4.401e-001 	
        86.376	  1.226e-002 	             	
        86.433	             	  4.401e-001 	
        86.440	  1.230e-002 	             	
        86.504	  1.228e-002 	             	
        86.529	             	  4.400e-001 	
        86.568	  1.233e-002 	             	
        86.593	             	  4.400e-001 	
        86.632	  1.230e-002 	             	
        86.657	             	  4.399e-001 	
        86.696	  1.230e-002 	             	
        86.721	             	  4.399e-001 	
        86.785	             	  4.399e-001 	
        86.792	  1.237e-002 	             	
        86.849	             	  4.400e-001 	
        86.856	  1.232e-002 	             	
        86.913	             	  4.400e-001 	
        86.920	  1.230e-002 	             	
        86.976	             	  4.400e-001 	
        86.984	  1.238e-002 	             	
        87.041	             	  4.401e-001 	
        87.048	  1.228e-002 	             	
        87.104	             	  4.400e-001 	
        87.112	  1.229e-002 	             	
        87.169	             	  4.400e-001 	
        87.176	  1.232e-002 	             	
        87.232	             	  4.400e-001 	
        87.240	  1.240e-002 	             	
        87.304	  1.229e-002 	             	
        87.328	             	  4.399e-001 	
        87.368	  1.219e-002 	             	
        87.392	             	  4.399e-001 	
        87.432	  1.229e-002 	             	
        87.456	             	  4.398e-001 	
        87.496	  1.219e-002 	             	
        87.520	             	  4.398e-001 	
        87.584	             	  4.397e-001 	
        87.592	  1.241e-002 	             	
        87.648	             	  4.397e-001 	
        87.656	  1.228e-002 	             	
        87.712	             	  4.397e-001 	
        87.720	  1.245e-002 	             	
        87.776	             	  4.398e-001 	
        87.784	  1.219e-002 	             	
        87.840	             	  4.399e-001 	
        87.848	  1.222e-002 	             	
        87.904	             	  4.399e-001 	
        87.912	  1.233e-002 	             	
        87.968	             	  4.399e-001 	
        87.976	  1.238e-002 	             	
        88.032	             	  4.400e-001 	
        88.040	  1.226e-002 	             	
        88.104	  1.235e-002 	             	
        88.129	             	  4.400e-001 	
        88.168	  1.242e-002 	             	
        88.192	             	  4.400e-001 	
        88.233	  1.237e-002 	             	
        88.258	             	  4.400e-001 	
        88.297	  1.243e-002 	             	
        88.321	             	  4.399e-001 	
        88.385	             	  4.399e-001 	
        88.393	  1.237e-002 	             	
        88.449	             	  4.398e-001 	
        88.457	  1.262e-002 	             	
        88.513	             	  4.399e-001 	
        88.521	  1.254e-002 	             	
        88.577	             	  4.398e-001 	
        88.585	  1.260e-002 	             	
        88.641	             	  4.399e-001 	
        88.649	  1.272e-002 	             	
        88.705	             	  4.399e-001 	
        88.713	  1.256e-002 	             	
        88.769	             	  4.399e-001 	
        88.777	  1.253e-002 	             	
        88.833	             	  4.399e-001 	
        88.841	  1.259e-002 	             	
        88.905	  1.262e-002 	             	
        88.930	             	  4.399e-001 	
        88.969	  1.258e-002 	             	
        88.993	             	  4.400e-001 	
        89.033	  1.265e-002 	             	
        89.057	             	  4.400e-001 	
        89.097	  1.262e-002 	             	
        89.121	             	  4.401e-001 	
        89.185	             	  4.401e-001 	
        89.193	  1.265e-002 	             	
        89.249	             	  4.401e-001 	
        89.257	  1.268e-002 	             	
        89.313	             	  4.400e-001 	
        89.321	  1.259e-002 	             	
        89.377	             	  4.400e-001 	
        89.385	  1.266e-002 	             	
        89.441	             	  4.400e-001 	
        89.449	  1.257e-002 	             	
        89.505	             	  4.401e-001 	
        89.513	  1.245e-002 	             	
        89.569	             	  4.400e-001 	
        89.577	  1.250e-002 	             	
        89.633	             	  4.399e-001 	
        89.641	  1.251e-002 	             	
        89.705	  1.261e-002 	             	
        89.729	             	  4.399e-001 	
        89.769	  1.260e-002 	             	
        89.793	             	  4.398e-001 	
        89.833	  1.245e-002 	             	
        89.857	             	  4.397e-001 	
        89.897	  1.256e-002 	             	
        89.921	             	  4.396e-001 	
        89.985	             	  4.397e-001 	
        89.993	  1.264e-002 	             	
        90.049	             	  4.397e-001 	
        90.057	  1.268e-002 	             	
        90.113	             	  4.398e-001 	
        90.121	  1.267e-002 	             	
        90.177	             	  4.399e-001 	
        90.185	  1.259e-002 	             	
        90.241	             	  4.400e-001 	
        90.249	  1.250e-002 	             	
        90.305	             	  4.400e-001 	
        90.313	  1.261e-002 	             	
        90.369	             	  4.401e-001 	
        90.377	  1.255e-002 	             	
        90.433	             	  4.401e-001 	
        90.441	  1.255e-002 	             	
        90.505	  1.254e-002 	             	
        90.529	             	  4.401e-001 	
        90.569	  1.249e-002 	             	
        90.593	             	  4.401e-001 	
        90.633	  1.244e-002 	             	
        90.657	             	  4.400e-001 	
        90.697	  1.245e-002 	             	
        90.721	             	  4.400e-001 	
        90.785	             	  4.400e-001 	
        90.793	  1.254e-002 	             	
        90.849	             	  4.400e-001 	
        90.856	  1.264e-002 	             	
        90.913	             	  4.401e-001 	
        90.921	  1.251e-002 	             	
        90.977	             	  4.402e-001 	
        90.985	  1.247e-002 	             	
        91.041	             	  4.403e-001 	
        91.048	  1.250e-002 	             	
        91.105	             	  4.404e-001 	
        91.113	  1.249e-002 	             	
        91.169	             	  4.404e-001 	
        91.177	  1.258e-002 	             	
        91.233	             	  4.404e-001 	
        91.241	  1.246e-002 	             	
        91.305	  1.254e-002 	             	
        91.329	             	  4.405e-001 	
        91.369	  1.237e-002 	             	
        91.393	             	  4.405e-001 	
        91.433	  1.234e-002 	             	
        91.457	             	  4.405e-001 	
        91.497	  1.247e-002 	             	
        91.521	             	  4.404e-001 	
        91.585	             	  4.404e-001 	
        91.593	  1.256e-002 	             	
        91.649	             	  4.403e-001 	
        91.657	  1.251e-002 	             	
        91.713	             	  4.403e-001 	
        91.721	  1.237e-002 	             	
        91.777	             	  4.403e-001 	
        91.784	  1.245e-002 	             	
        91.841	             	  4.403e-001 	
        91.848	  1.250e-002 	             	
        91.905	             	  4.404e-001 	
        91.912	  1.240e-002 	             	
        91.969	             	  4.405e-001 	
        91.976	  1.234e-002 	             	
        92.033	             	  4.405e-001 	
        92.040	  1.250e-002 	             	
        92.104	  1.248e-002 	             	
        92.129	             	  4.405e-001 	
        92.168	  1.259e-002 	             	
        92.193	             	  4.405e-001 	
        92.232	  1.259e-002 	             	
        92.257	             	  4.404e-001 	
        92.296	  1.261e-002 	             	
        92.321	             	  4.404e-001 	
        92.385	             	  4.404e-001 	
        92.392	  1.253e-002 	             	
        92.449	             	  4.405e-001 	
        92.456	  1.254e-002 	             	
        92.513	             	  4.406e-001 	
        92.520	  1.251e-002 	             	
        92.577	             	  4.406e-001 	
        92.584	  1.241e-002 	             	
        92.641	             	  4.406e-001 	
        92.648	  1.248e-002 	             	
        92.705	             	  4.406e-001 	
        92.712	  1.246e-002 	             	
        92.769	             	  4.406e-001 	
        92.776	  1.246e-002 	             	
        92.833	             	  4.405e-001 	
        92.840	  1.255e-002 	             	
        92.904	  1.257e-002 	             	
        92.929	             	  4.405e-001 	
        92.968	  1.269e-002 	             	
        92.993	             	  4.405e-001 	
        93.032	  1.257e-002 	             	
        93.057	             	  4.406e-001 	
        93.096	  1.265e-002 	             	
        93.121	             	  4.407e-001 	
        93.185	             	  4.408e-001 	
        93.192	  1.267e-002 	             	
        93.249	             	  4.409e-001 	
        93.256	  1.252e-002 	             	
        93.313	             	  4.409e-001 	
        93.320	  1.263e-002 	             	
        93.377	             	  4.410e-001 	
        93.384	  1.267e-002 	             	
        93.441	             	  4.409e-001 	
        93.448	  1.273e-002 	             	
        93.505	             	  4.408e-001 	
        93.512	  1.264e-002 	             	
        93.569	             	  4.408e-001 	
        93.576	  1.273e-002 	             	
        93.633	             	  4.407e-001 	
        93.640	  1.270e-002 	             	
        93.704	  1.274e-002 	             	
        93.729	             	  4.407e-001 	
        93.769	  1.274e-002 	             	
        93.793	             	  4.406e-001 	
        93.832	  1.270e-002 	             	
        93.857	             	  4.406e-001 	
        93.896	  1.276e-002 	             	
        93.921	             	  4.406e-001 	
        93.985	             	  4.406e-001 	
        93.992	  1.281e-002 	             	
        94.049	             	  4.406e-001 	
        94.056	  1.266e-002 	             	
        94.113	             	  4.406e-001 	
        94.120	  1.274e-002 	             	
        94.177	             	  4.405e-001 	
        94.184	  1.277e-002 	             	
        94.241	             	  4.404e-001 	
        94.248	  1.273e-002 	             	
        94.305	             	  4.404e-001 	
        94.312	  1.288e-002 	             	
        94.369	             	  4.404e-001 	
        94.376	  1.283e-002 	             	
        94.433	             	  4.404e-001 	
        94.440	  1.278e-002 	             	
        94.504	  1.281e-002 	             	
        94.529	             	  4.404e-001 	
        94.568	  1.283e-002 	             	
        94.593	             	  4.404e-001 	
        94.632	  1.290e-002 	             	
        94.657	             	  4.405e-001 	
        94.696	  1.296e-002 	             	
        94.721	             	  4.405e-001 	
        94.785	             	  4.404e-001 	
        94.792	  1.290e-002 	             	
        94.849	             	  4.404e-001 	
        94.856	  1.294e-002 	             	
        94.913	             	  4.404e-001 	
        94.920	  1.281e-002 	             	
        94.977	             	  4.405e-001 	
        94.984	  1.271e-002 	             	
        95.041	             	  4.406e-001 	
        95.048	  1.278e-002 	             	
        95.105	             	  4.406e-001 	
        95.112	  1.288e-002 	             	
        95.169	             	  4.407e-001 	
        95.176	  1.274e-002 	             	
        95.233	             	  4.408e-001 	
        95.240	  1.276e-002 	             	
        95.304	  1.286e-002 	             	
        95.329	             	  4.407e-001 	
        95.368	  1.285e-002 	             	
        95.393	             	  4.406e-001 	
        95.432	  1.276e-002 	             	
        95.457	             	  4.406e-001 	
        95.496	  1.277e-002 	             	
        95.521	             	  4.405e-001 	
        95.585	             	  4.405e-001 	
        95.592	  1.275e-002 	             	
        95.649	             	  4.405e-001 	
        95.656	  1.281e-002 	             	
        95.713	             	  4.406e-001 	
        95.720	  1.272e-002 	             	
        95.777	             	  4.406e-001 	
        95.784	  1.276e-002 	             	
        95.841	             	  4.406e-001 	
        95.848	  1.286e-002 	             	
        95.905	             	  4.406e-001 	
        95.912	  1.286e-002 	             	
        95.969	             	  4.408e-001 	
        95.976	  1.288e-002 	             	
        96.033	             	  4.408e-001 	
        96.040	  1.278e-002 	             	
        96.104	  1.279e-002 	             	
        96.129	             	  4.409e-001 	
        96.168	  1.281e-002 	             	
        96.193	             	  4.410e-001 	
        96.232	  1.275e-002 	             	
        96.257	             	  4.410e-001 	
        96.296	  1.273e-002 	             	
        96.321	             	  4.411e-001 	
        96.385	             	  4.411e-001 	
        96.392	  1.282e-002 	             	
        96.449	             	  4.411e-001 	
        96.456	  1.273e-002 	             	
        96.513	             	  4.411e-001 	
        96.520	  1.281e-002 	             	
        96.577	             	  4.411e-001 	
        96.584	  1.275e-002 	             	
        96.641	             	  4.411e-001 	
        96.648	  1.271e-002 	             	
        96.705	             	  4.412e-001 	
        96.712	  1.285e-002 	             	
        96.769	             	  4.412e-001 	
        96.776	  1.271e-002 	             	
        96.833	             	  4.412e-001 	
        96.840	  1.275e-002 	             	
        96.897	             	  4.412e-001 	
        96.904	  1.267e-002 	             	
        96.968	  1.271e-002 	             	
        96.993	             	  4.412e-001 	
        97.032	  1.270e-002 	             	
        97.057	             	  4.412e-001 	
        97.096	  1.277e-002 	             	
        97.121	             	  4.412e-001 	
        97.185	             	  4.412e-001 	
        97.192	  1.274e-002 	             	
        97.249	             	  4.412e-001 	
        97.256	  1.275e-002 	             	
        97.313	             	  4.413e-001 	
        97.320	  1.282e-002 	             	
        97.377	             	  4.412e-001 	
        97.384	  1.280e-002 	             	
        97.441	             	  4.412e-001 	
        97.448	  1.276e-002 	             	
        97.505	             	  4.412e-001 	
        97.512	  1.285e-002 	             	
        97.569	             	  4.412e-001 	
        97.576	  1.278e-002 	             	
        97.633	             	  4.412e-001 	
        97.640	  1.277e-002 	             	
        97.697	             	  4.412e-001 	
        97.704	  1.272e-002 	             	
        97.768	  1.263e-002 	             	
        97.793	             	  4.413e-001 	
        97.832	  1.260e-002 	             	
        97.857	             	  4.413e-001 	
        97.896	  1.269e-002 	             	
        97.921	             	  4.412e-001 	
        97.960	  1.277e-002 	             	
        97.985	             	  4.412e-001 	
        98.049	             	  4.411e-001 	
        98.056	  1.281e-002 	             	
        98.113	             	  4.412e-001 	
        98.120	  1.279e-002 	             	
        98.177	             	  4.411e-001 	
        98.184	  1.277e-002 	             	
        98.241	             	  4.412e-001 	
        98.248	  1.276e-002 	             	
        98.305	             	  4.412e-001 	
        98.312	  1.280e-002 	             	
        98.369	             	  4.413e-001 	
        98.376	  1.267e-002 	             	
        98.433	             	  4.413e-001 	
        98.440	  1.254e-002 	             	
        98.497	             	  4.413e-001 	
        98.504	  1.273e-002 	             	
        98.568	  1.269e-002 	             	
        98.593	             	  4.412e-001 	
        98.632	  1.272e-002 	             	
        98.657	             	  4.412e-001 	
        98.696	  1.268e-002 	             	
        98.721	             	  4.412e-001 	
        98.760	  1.276e-002 	             	
        98.785	             	  4.412e-001 	
        98.849	             	  4.412e-001 	
        98.856	  1.286e-002 	             	
        98.913	             	  4.412e-001 	
        98.920	  1.276e-002 	             	
        98.977	             	  4.413e-001 	
        98.984	  1.272e-002 	             	
        99.041	             	  4.413e-001 	
        99.048	  1.281e-002 	             	
        99.105	             	  4.413e-001 	
        99.112	  1.273e-002 	             	
        99.169	             	  4.413e-001 	
        99.176	  1.278e-002 	             	
        99.233	             	  4.412e-001 	
        99.240	  1.282e-002 	             	
        99.297	             	  4.412e-001 	
        99.304	  1.280e-002 	             	
        99.368	  1.287e-002 	             	
        99.393	             	  4.412e-001 	
        99.432	  1.262e-002 	             	
        99.457	             	  4.412e-001 	
        99.496	  1.280e-002 	             	
        99.521	             	  4.412e-001 	
        99.560	  1.287e-002 	             	
        99.585	             	  4.412e-001 	
        99.649	             	  4.412e-001 	
        99.656	  1.279e-002 	             	
        99.713	             	  4.412e-001 	
        99.720	  1.281e-002 	             	
        99.777	             	  4.411e-001 	
        99.784	  1.284e-002 	             	
        99.841	             	  4.411e-001 	
        99.848	  1.290e-002 	             	
        99.905	             	  4.410e-001 	
        99.912	  1.292e-002 	             	
        99.969	             	  4.410e-001 	
        99.976	  1.288e-002 	             	
       100.033	             	  4.410e-001 	
       100.040	  1.288e-002 	             	
       100.104	  1.284e-002 	             	
       100.129	             	  4.410e-001 	
       100.168	  1.279e-002 	             	
       100.193	             	  4.410e-001 	
       100.232	  1.279e-002 	             	
       100.257	             	  4.410e-001 	
       100.296	  1.296e-002 	             	
       100.321	             	  4.410e-001 	
       100.360	  1.278e-002 	             	
       100.385	             	  4.409e-001 	
       100.449	             	  4.409e-001 	
       100.456	  1.295e-002 	             	
       100.513	             	  4.409e-001 	
       100.520	  1.292e-002 	             	
       100.577	             	  4.409e-001 	
       100.584	  1.273e-002 	             	
       100.641	             	  4.409e-001 	
       100.648	  1.278e-002 	             	
       100.705	             	  4.410e-001 	
       100.712	  1.279e-002 	             	
       100.769	             	  4.410e-001 	
       100.776	  1.287e-002 	             	
       100.833	             	  4.410e-001 	
       100.840	  1.286e-002 	             	
       100.897	             	  4.410e-001 	
       100.904	  1.279e-002 	             	
       100.968	  1.268e-002 	             	
       100.993	             	  4.410e-001 	
       101.032	  1.279e-002 	             	
       101.057	             	  4.410e-001 	
       101.096	  1.274e-002 	             	
       101.121	             	  4.410e-001 	
       101.160	  1.268e-002 	             	
       101.185	             	  4.410e-001 	
       101.249	             	  4.410e-001 	
       101.256	  1.258e-002 	             	
       101.313	             	  4.409e-001 	
       101.320	  1.278e-002 	             	
       101.377	             	  4.409e-001 	
       101.384	  1.270e-002 	             	
       101.441	             	  4.409e-001 	
       101.448	  1.271e-002 	             	
       101.505	             	  4.409e-001 	
       101.512	  1.262e-002 	             	
       101.569	             	  4.409e-001 	
       101.576	  1.285e-002 	             	
       101.633	             	  4.409e-001 	
       101.640	  1.286e-002 	             	
       101.697	             	  4.409e-001 	
       101.704	  1.282e-002 	             	
       101.768	  1.284e-002 	             	
       101.793	             	  4.408e-001 	
       101.832	  1.289e-002 	             	
       101.857	             	  4.408e-001 	
       101.896	  1.287e-002 	             	
       101.921	             	  4.408e-001 	
       101.960	  1.271e-002 	             	
       101.985	             	  4.408e-001 	
       102.049	             	  4.409e-001 	
       102.056	  1.280e-002 	             	
       102.113	             	  4.408e-001 	
       102.120	  1.289e-002 	             	
       102.177	             	  4.408e-001 	
       102.184	  1.282e-002 	             	
       102.241	             	  4.408e-001 	
       102.248	  1.277e-002 	             	
       102.305	             	  4.408e-001 	
       102.312	  1.282e-002 	             	
       102.369	             	  4.408e-001 	
       102.376	  1.263e-002 	             	
       102.433	             	  4.408e-001 	
       102.440	  1.270e-002 	             	
       102.497	             	  4.408e-001 	
       102.504	  1.276e-002 	             	
       102.568	  1.285e-002 	             	
       102.593	             	  4.408e-001 	
       102.632	  1.283e-002 	             	
       102.657	             	  4.408e-001 	
       102.696	  1.288e-002 	             	
       102.721	             	  4.408e-001 	
       102.760	  1.272e-002 	             	
       102.785	             	  4.409e-001 	
       102.849	             	  4.410e-001 	
       102.856	  1.268e-002 	             	
       102.913	             	  4.410e-001 	
       102.920	  1.284e-002 	             	
       102.977	             	  4.410e-001 	
       102.984	  1.277e-002 	             	
       103.041	             	  4.410e-001 	
       103.048	  1.280e-002 	             	
       103.105	             	  4.409e-001 	
       103.112	  1.269e-002 	             	
       103.169	             	  4.408e-001 	
       103.176	  1.277e-002 	             	
       103.233	             	  4.408e-001 	
       103.240	  1.281e-002 	             	
       103.297	             	  4.407e-001 	
       103.304	  1.274e-002 	             	
       103.368	  1.274e-002 	             	
       103.393	             	  4.406e-001 	
       103.432	  1.275e-002 	             	
       103.457	             	  4.406e-001 	
       103.496	  1.277e-002 	             	
       103.521	             	  4.406e-001 	
       103.560	  1.277e-002 	             	
       103.585	             	  4.407e-001 	
       103.649	             	  4.408e-001 	
       103.656	  1.269e-002 	             	
       103.713	             	  4.410e-001 	
       103.720	  1.274e-002 	             	
       103.777	             	  4.410e-001 	
       103.784	  1.267e-002 	             	
       103.841	             	  4.410e-001 	
       103.848	  1.266e-002 	             	
       103.905	             	  4.410e-001 	
       103.912	  1.270e-002 	             	
       103.969	             	  4.410e-001 	
       103.976	  1.260e-002 	             	
       104.033	             	  4.411e-001 	
       104.040	  1.255e-002 	             	
       104.097	             	  4.410e-001 	
       104.104	  1.258e-002 	             	
       104.168	  1.258e-002 	             	
       104.193	             	  4.410e-001 	
       104.232	  1.260e-002 	             	
       104.256	             	  4.410e-001 	
       104.296	  1.258e-002 	             	
       104.320	             	  4.410e-001 	
       104.360	  1.266e-002 	             	
       104.385	             	  4.410e-001 	
       104.449	             	  4.410e-001 	
       104.456	  1.273e-002 	             	
       104.513	             	  4.409e-001 	
       104.520	  1.266e-002 	             	
       104.577	             	  4.409e-001 	
       104.584	  1.265e-002 	             	
       104.641	             	  4.409e-001 	
       104.648	  1.258e-002 	             	
       104.705	             	  4.409e-001 	
       104.712	  1.263e-002 	             	
       104.769	             	  4.409e-001 	
       104.776	  1.269e-002 	             	
       104.833	             	  4.410e-001 	
       104.840	  1.279e-002 	             	
       104.896	             	  4.410e-001 	
       104.904	  1.278e-002 	             	
       104.968	  1.276e-002 	             	
       104.993	             	  4.409e-001 	
       105.032	  1.298e-002 	             	
       105.056	             	  4.408e-001 	
       105.096	  1.293e-002 	             	
       105.121	             	  4.408e-001 	
       105.160	  1.293e-002 	             	
       105.185	             	  4.408e-001 	
       105.248	             	  4.408e-001 	
       105.256	  1.292e-002 	             	
       105.312	             	  4.409e-001 	
       105.320	  1.290e-002 	             	
       105.377	             	  4.410e-001 	
       105.384	  1.295e-002 	             	
       105.440	             	  4.410e-001 	
       105.448	  1.298e-002 	             	
       105.504	             	  4.411e-001 	
       105.512	  1.297e-002 	             	
       105.568	             	  4.412e-001 	
       105.576	  1.302e-002 	             	
       105.632	             	  4.412e-001 	
       105.640	  1.296e-002 	             	
       105.697	             	  4.414e-001 	
       105.705	  1.297e-002 	             	
       105.769	  1.285e-002 	             	
       105.793	             	  4.414e-001 	
       105.833	  1.297e-002 	             	
       105.857	             	  4.414e-001 	
       105.897	  1.291e-002 	             	
       105.922	             	  4.414e-001 	
       105.961	  1.293e-002 	             	
       105.985	             	  4.415e-001 	
       106.049	             	  4.415e-001 	
       106.057	  1.281e-002 	             	
       106.113	             	  4.416e-001 	
       106.121	  1.277e-002 	             	
       106.177	             	  4.417e-001 	
       106.185	  1.266e-002 	             	
       106.241	             	  4.417e-001 	
       106.249	  1.258e-002 	             	
       106.305	             	  4.417e-001 	
       106.313	  1.249e-002 	             	
       106.369	             	  4.417e-001 	
       106.377	  1.247e-002 	             	
       106.433	             	  4.417e-001 	
       106.441	  1.260e-002 	             	
       106.497	             	  4.416e-001 	
       106.505	  1.264e-002 	             	
       106.569	  1.252e-002 	             	
       106.593	             	  4.415e-001 	
       106.633	  1.257e-002 	             	
       106.657	             	  4.414e-001 	
       106.697	  1.259e-002 	             	
       106.721	             	  4.414e-001 	
       106.761	  1.261e-002 	             	
       106.785	             	  4.415e-001 	
       106.849	             	  4.416e-001 	
       106.857	  1.273e-002 	             	
       106.913	             	  4.416e-001 	
       106.921	  1.258e-002 	             	
       106.977	             	  4.417e-001 	
       106.985	  1.269e-002 	             	
       107.041	             	  4.417e-001 	
       107.049	  1.267e-002 	             	
       107.105	             	  4.417e-001 	
       107.113	  1.269e-002 	             	
       107.169	             	  4.417e-001 	
       107.177	  1.263e-002 	             	
       107.233	             	  4.417e-001 	
       107.241	  1.251e-002 	             	
       107.297	             	  4.417e-001 	
       107.305	  1.254e-002 	             	
       107.369	  1.259e-002 	             	
       107.393	             	  4.417e-001 	
       107.433	  1.267e-002 	             	
       107.457	             	  4.416e-001 	
       107.497	  1.250e-002 	             	
       107.521	             	  4.415e-001 	
       107.561	  1.274e-002 	             	
       107.585	             	  4.414e-001 	
       107.649	             	  4.414e-001 	
       107.657	  1.267e-002 	             	
       107.713	             	  4.414e-001 	
       107.721	  1.259e-002 	             	
       107.777	             	  4.414e-001 	
       107.785	  1.268e-002 	             	
       107.841	             	  4.413e-001 	
       107.849	  1.279e-002 	             	
       107.905	             	  4.413e-001 	
       107.913	  1.281e-002 	             	
       107.969	             	  4.413e-001 	
       107.977	  1.272e-002 	             	
       108.033	             	  4.413e-001 	
       108.040	  1.270e-002 	             	
       108.097	             	  4.413e-001 	
       108.105	  1.268e-002 	             	
       108.169	  1.272e-002 	             	
       108.193	             	  4.412e-001 	
       108.233	  1.272e-002 	             	
       108.257	             	  4.412e-001 	
       108.297	  1.268e-002 	             	
       108.321	             	  4.411e-001 	
       108.361	  1.270e-002 	             	
       108.385	             	  4.411e-001 	
       108.449	             	  4.411e-001 	
       108.457	  1.276e-002 	             	
       108.513	             	  4.412e-001 	
       108.521	  1.288e-002 	             	
       108.577	             	  4.412e-001 	
       108.584	  1.276e-002 	             	
       108.641	             	  4.414e-001 	
       108.649	  1.273e-002 	             	
       108.705	             	  4.415e-001 	
       108.713	  1.256e-002 	             	
       108.769	             	  4.415e-001 	
       108.777	  1.257e-002 	             	
       108.833	             	  4.415e-001 	
       108.841	  1.255e-002 	             	
       108.897	             	  4.414e-001 	
       108.904	  1.257e-002 	             	
       108.969	  1.256e-002 	             	
       108.993	             	  4.413e-001 	
       109.033	  1.252e-002 	             	
       109.057	             	  4.412e-001 	
       109.097	  1.247e-002 	             	
       109.121	             	  4.412e-001 	
       109.161	  1.251e-002 	             	
       109.185	             	  4.412e-001 	
       109.249	             	  4.412e-001 	
       109.257	  1.238e-002 	             	
       109.313	             	  4.412e-001 	
       109.321	  1.268e-002 	             	
       109.377	             	  4.413e-001 	
       109.384	  1.256e-002 	             	
       109.441	             	  4.414e-001 	
       109.449	  1.252e-002 	             	
       109.505	             	  4.414e-001 	
       109.512	  1.244e-002 	             	
       109.569	             	  4.415e-001 	
       109.576	  1.248e-002 	             	
       109.633	             	  4.415e-001 	
       109.640	  1.264e-002 	             	
       109.697	             	  4.415e-001 	
       109.704	  1.267e-002 	             	
       109.761	             	  4.415e-001 	
       109.769	  1.266e-002 	             	
       109.832	  1.267e-002 	             	
       109.857	             	  4.416e-001 	
       109.896	  1.264e-002 	             	
       109.921	             	  4.417e-001 	
       109.960	  1.260e-002 	             	
       109.985	             	  4.418e-001 	
       110.049	             	  4.417e-001 	
       110.056	  1.276e-002 	             	
       110.113	             	  4.417e-001 	
       110.120	  1.281e-002 	             	
       110.177	             	  4.416e-001 	
       110.184	  1.274e-002 	             	
       110.241	             	  4.416e-001 	
       110.248	  1.283e-002 	             	
       110.305	             	  4.415e-001 	
       110.312	  1.270e-002 	             	
       110.369	             	  4.415e-001 	
       110.376	  1.293e-002 	             	
       110.433	             	  4.415e-001 	
       110.440	  1.291e-002 	             	
       110.497	             	  4.415e-001 	
       110.504	  1.295e-002 	             	
       110.561	             	  4.415e-001 	
       110.569	  1.289e-002 	             	
       110.632	  1.284e-002 	             	
       110.657	             	  4.414e-001 	
       110.696	  1.281e-002 	             	
       110.721	             	  4.415e-001 	
       110.760	  1.290e-002 	             	
       110.785	             	  4.415e-001 	
       110.825	  1.288e-002 	             	
       110.849	             	  4.415e-001 	
       110.913	             	  4.415e-001 	
       110.920	  1.290e-002 	             	
       110.977	             	  4.414e-001 	
       110.984	  1.286e-002 	             	
       111.041	             	  4.415e-001 	
       111.048	  1.270e-002 	             	
       111.105	             	  4.415e-001 	
       111.112	  1.277e-002 	             	
       111.169	             	  4.414e-001 	
       111.176	  1.285e-002 	             	
       111.233	             	  4.413e-001 	
       111.240	  1.300e-002 	             	
       111.297	             	  4.413e-001 	
       111.304	  1.277e-002 	             	
       111.361	             	  4.413e-001 	
       111.368	  1.277e-002 	             	
       111.432	  1.277e-002 	             	
       111.457	             	  4.413e-001 	
       111.496	  1.270e-002 	             	
       111.521	             	  4.412e-001 	
       111.560	  1.270e-002 	             	
       111.585	             	  4.412e-001 	
       111.649	             	  4.411e-001 	
       111.656	  1.265e-002 	             	
       111.713	             	  4.411e-001 	
       111.720	  1.257e-002 	             	
       111.777	             	  4.411e-001 	
       111.784	  1.261e-002 	             	
       111.841	             	  4.410e-001 	
       111.848	  1.260e-002 	             	
       111.905	             	  4.410e-001 	
       111.912	  1.265e-002 	             	
       111.969	             	  4.410e-001 	
       111.976	  1.257e-002 	             	
       112.033	             	  4.411e-001 	
       112.040	  1.253e-002 	             	
       112.097	             	  4.412e-001 	
       112.104	  1.248e-002 	             	
       112.161	             	  4.412e-001 	
       112.168	  1.251e-002 	             	
       112.232	  1.251e-002 	             	
       112.257	             	  4.411e-001 	
       112.296	  1.267e-002 	             	
       112.321	             	  4.411e-001 	
       112.360	  1.267e-002 	             	
       112.385	             	  4.410e-001 	
       112.424	  1.261e-002 	             	
       112.449	             	  4.410e-001 	
       112.513	             	  4.410e-001 	
       112.520	  1.276e-002 	             	
       112.577	             	  4.410e-001 	
       112.584	  1.269e-002 	             	
       112.641	             	  4.409e-001 	
       112.648	  1.269e-002 	             	
       112.705	             	  4.409e-001 	
       112.712	  1.262e-002 	             	
       112.769	             	  4.407e-001 	
       112.776	  1.261e-002 	             	
       112.833	             	  4.407e-001 	
       112.840	  1.274e-002 	             	
       112.897	             	  4.407e-001 	
       112.904	  1.281e-002 	             	
       112.961	             	  4.406e-001 	
       112.968	  1.286e-002 	             	
       113.032	  1.288e-002 	             	
       113.057	             	  4.405e-001 	
       113.096	  1.280e-002 	             	
       113.121	             	  4.404e-001 	
       113.160	  1.284e-002 	             	
       113.185	             	  4.404e-001 	
       113.224	  1.280e-002 	             	
       113.249	             	  4.404e-001 	
       113.313	             	  4.405e-001 	
       113.320	  1.290e-002 	             	
       113.377	             	  4.405e-001 	
       113.384	  1.286e-002 	             	
       113.441	             	  4.405e-001 	
       113.448	  1.286e-002 	             	
       113.505	             	  4.405e-001 	
       113.512	  1.273e-002 	             	
       113.569	             	  4.405e-001 	
       113.576	  1.277e-002 	             	
       113.633	             	  4.405e-001 	
       113.640	  1.271e-002 	             	
       113.697	             	  4.405e-001 	
       113.704	  1.272e-002 	             	
       113.761	             	  4.406e-001 	
       113.768	  1.274e-002 	             	
       113.832	  1.274e-002 	             	
       113.857	             	  4.406e-001 	
       113.896	  1.267e-002 	             	
       113.921	             	  4.406e-001 	
       113.960	  1.275e-002 	             	
       113.985	             	  4.406e-001 	
       114.024	  1.279e-002 	             	
       114.049	             	  4.406e-001 	
       114.113	             	  4.406e-001 	
       114.120	  1.271e-002 	             	
       114.177	             	  4.406e-001 	
       114.184	  1.278e-002 	             	
       114.241	             	  4.406e-001 	
       114.248	  1.284e-002 	             	
       114.305	             	  4.407e-001 	
       114.312	  1.271e-002 	             	
       114.369	             	  4.407e-001 	
       114.376	  1.270e-002 	             	
       114.433	             	  4.407e-001 	
       114.440	  1.277e-002 	             	
       114.497	             	  4.407e-001 	
       114.504	  1.280e-002 	             	
       114.561	             	  4.407e-001 	
       114.568	  1.266e-002 	             	
       114.632	  1.279e-002 	             	
       114.657	             	  4.406e-001 	
       114.696	  1.276e-002 	             	
       114.721	             	  4.404e-001 	
       114.760	  1.282e-002 	             	
       114.785	             	  4.403e-001 	
       114.824	  1.273e-002 	             	
       114.849	             	  4.402e-001 	
       114.913	             	  4.401e-001 	
       114.920	  1.270e-002 	             	
       114.977	             	  4.400e-001 	
       114.984	  1.272e-002 	             	
       115.041	             	  4.399e-001 	
       115.048	  1.258e-002 	             	
       115.105	             	  4.398e-001 	
       115.112	  1.271e-002 	             	
       115.169	             	  4.398e-001 	
       115.176	  1.276e-002 	             	
       115.233	             	  4.398e-001 	
       115.240	  1.277e-002 	             	
       115.297	             	  4.398e-001 	
       115.304	  1.280e-002 	             	
       115.361	             	  4.398e-001 	
       115.368	  1.279e-002 	             	
       115.432	  1.273e-002 	             	
       115.457	             	  4.399e-001 	
       115.496	  1.285e-002 	             	
       115.521	             	  4.401e-001 	
       115.560	  1.261e-002 	             	
       115.585	             	  4.402e-001 	
       115.624	  1.258e-002 	             	
       115.649	             	  4.402e-001 	
       115.713	             	  4.401e-001 	
       115.720	  1.285e-002 	             	
       115.777	             	  4.401e-001 	
       115.784	  1.278e-002 	             	
       115.841	             	  4.401e-001 	
       115.848	  1.267e-002 	             	
       115.905	             	  4.401e-001 	
       115.912	  1.270e-002 	             	
       115.969	             	  4.402e-001 	
       115.976	  1.282e-002 	             	
       116.033	             	  4.402e-001 	
       116.040	  1.272e-002 	             	
       116.097	             	  4.403e-001 	
       116.104	  1.260e-002 	             	
       116.161	             	  4.403e-001 	
       116.168	  1.271e-002 	             	
       116.232	  1.274e-002 	             	
       116.257	             	  4.403e-001 	
       116.296	  1.278e-002 	             	
       116.321	             	  4.403e-001 	
       116.360	  1.255e-002 	             	
       116.385	             	  4.404e-001 	
       116.424	  1.267e-002 	             	
       116.449	             	  4.403e-001 	
       116.513	             	  4.403e-001 	
       116.520	  1.270e-002 	             	
       116.577	             	  4.404e-001 	
       116.584	  1.275e-002 	             	
       116.641	             	  4.404e-001 	
       116.648	  1.276e-002 	             	
       116.705	             	  4.404e-001 	
       116.712	  1.277e-002 	             	
       116.769	             	  4.405e-001 	
       116.776	  1.267e-002 	             	
       116.833	             	  4.406e-001 	
       116.840	  1.273e-002 	             	
       116.897	             	  4.406e-001 	
       116.904	  1.268e-002 	             	
       116.961	             	  4.406e-001 	
       116.968	  1.275e-002 	             	
       117.032	  1.274e-002 	             	
       117.057	             	  4.406e-001 	
       117.096	  1.268e-002 	             	
       117.121	             	  4.405e-001 	
       117.160	  1.261e-002 	             	
       117.185	             	  4.404e-001 	
       117.224	  1.276e-002 	             	
       117.249	             	  4.404e-001 	
       117.313	             	  4.404e-001 	
       117.320	  1.274e-002 	             	
       117.377	             	  4.404e-001 	
       117.384	  1.274e-002 	             	
       117.441	             	  4.404e-001 	
       117.448	  1.280e-002 	             	
       117.505	             	  4.405e-001 	
       117.512	  1.274e-002 	             	
       117.569	             	  4.405e-001 	
       117.576	  1.273e-002 	             	
       117.633	             	  4.406e-001 	
       117.640	  1.275e-002 	             	
       117.697	             	  4.407e-001 	
       117.704	  1.270e-002 	             	
       117.761	             	  4.408e-001 	
       117.768	  1.262e-002 	             	
       117.832	  1.263e-002 	             	
       117.857	             	  4.408e-001 	
       117.896	  1.260e-002 	             	
       117.921	             	  4.408e-001 	
       117.960	  1.271e-002 	             	
       117.985	             	  4.408e-001 	
       118.024	  1.271e-002 	             	
       118.049	             	  4.408e-001 	
       118.113	             	  4.407e-001 	
       118.120	  1.273e-002 	             	
       118.177	             	  4.407e-001 	
       118.184	  1.273e-002 	             	
       118.241	             	  4.408e-001 	
       118.248	  1.274e-002 	             	
       118.305	             	  4.410e-001 	
       118.312	  1.277e-002 	             	
       118.369	             	  4.411e-001 	
       118.376	  1.281e-002 	             	
       118.433	             	  4.412e-001 	
       118.440	  1.273e-002 	             	
       118.497	             	  4.414e-001 	
       118.504	  1.260e-002 	             	
       118.561	             	  4.415e-001 	
       118.568	  1.266e-002 	             	
       118.632	  3.700e-004 	             	
       118.657	             	  4.415e-001 	
       118.696	  0.000e+000 	             	
       118.721	             	  4.416e-001 	
       118.760	  0.000e+000 	             	
       118.785	             	  4.415e-001 	
       118.824	  0.000e+000 	             	
       118.849	             	  4.416e-001 	
       118.913	             	  4.416e-001 	
       118.920	  0.000e+000 	             	
       118.977	             	  4.417e-001 	
       118.984	  1.270e-002 	             	
       119.041	             	  4.417e-001 	
       119.048	  1.269e-002 	             	
       119.105	             	  4.417e-001 	
       119.112	  1.267e-002 	             	
       119.169	             	  4.417e-001 	
       119.176	  1.281e-002 	             	
       119.233	             	  4.417e-001 	
       119.240	  1.271e-002 	             	
       119.297	             	  4.418e-001 	
       119.304	  1.269e-002 	             	
       119.361	             	  4.419e-001 	
       119.368	  1.269e-002 	             	
       119.432	  1.271e-002 	             	
       119.457	             	  4.419e-001 	
       119.496	  1.271e-002 	             	
       119.521	             	  4.420e-001 	
       119.560	  1.281e-002 	             	
       119.585	             	  4.421e-001 	
       119.624	  1.281e-002 	             	
       119.649	             	  4.422e-001 	
       119.713	             	  4.423e-001 	
       119.720	  1.274e-002 	             	
       119.777	             	  4.424e-001 	
       119.784	  1.270e-002 	             	
       119.841	             	  4.424e-001 	
       119.848	  1.274e-002 	             	
       119.905	             	  4.423e-001 	
       119.912	  1.282e-002 	             	
       119.969	             	  4.421e-001 	
       119.976	  1.267e-002 	             	
       120.033	             	  4.420e-001 	
       120.040	  1.270e-002 	             	
       120.097	             	  4.419e-001 	
       120.104	  1.277e-002 	             	
       120.161	             	  4.418e-001 	
       120.168	  1.279e-002 	             	
       120.232	  1.245e-002 	             	
       120.257	             	  4.418e-001 	
       120.296	  1.344e-002 	             	
       120.321	             	  4.418e-001 	
       120.360	  3.400e-004 	             	
       120.385	             	  4.419e-001 	
       120.424	  1.000e-005 	             	
       120.449	             	  4.420e-001 	
       120.513	             	  4.421e-001 	
       120.520	  1.000e-005 	             	
       120.577	             	  4.421e-001 	
       120.584	  1.000e-005 	             	
       120.641	             	  4.420e-001 	
       120.648	  1.000e-005 	             	
       120.705	             	  4.420e-001 	
       120.712	  1.000e-005 	             	
       120.769	             	  4.420e-001 	
       120.776	  1.000e-005 	             	
       120.833	             	  4.419e-001 	
       120.840	  1.000e-005 	             	
       120.897	             	  4.419e-001 	
       120.904	  1.000e-005 	             	
       120.961	             	  4.419e-001 	
       120.968	  1.000e-005 	             	
       121.032	  1.000e-005 	             	
       121.057	             	  4.419e-001 	
       121.096	  1.000e-005 	             	
       121.121	             	  4.419e-001 	
       121.160	  1.000e-005 	             	
       121.185	             	  4.419e-001 	
       121.224	  1.000e-005 	             	
       121.249	             	  4.419e-001 	
       121.313	             	  4.419e-001 	
       121.320	  1.000e-005 	             	
       121.377	             	  4.419e-001 	
       121.384	  1.000e-005 	             	
       121.441	             	  4.419e-001 	
       121.448	  1.000e-005 	             	
       121.504	             	  4.419e-001 	
       121.512	  1.000e-005 	             	
       121.569	             	  4.419e-001 	
       121.576	  1.000e-005 	             	
       121.633	             	  4.419e-001 	
       121.640	  1.000e-005 	             	
       121.697	             	  4.419e-001 	
       121.704	  1.000e-005 	             	
