;PC Software:StarLab Version 2.10 Build 25
;Logged:13/09/2022 at 14:57:51
;File Version:3
;Graph Type:Line
;Notes:                                                            

;Channel A:Nova II Photodiode PD300-3W-v1 (s/n:763106)  NN2.52 (s/n:767396)
;Channel B:Vega Thermopile 10A-V1.1 (s/n:693380)  VG2.44 (s/n:858327)

;Channel A:Details
;Name:PD300-3W-v1
;Graph Color:RGB(0,102,255)
;Units:W
;Settings:Measuring:Power
;Settings:Wavelength:1064
;Settings:Range:AUTO
;Settings:Filter:IN

;Channel B:Details
;Name:10A-V1.1
;Graph Color:RGB(154,0,0)
;Units:W
;Settings:Measuring:Power
;Settings:Laser:<.8u
;Settings:Range:AUTO
;--------------------


;First Pulse Arrived : 13/09/2022 at 14:57:51.373000
  Timestamp   	  Channel A  	  Channel B  	
         0.000	  0.000e+000 	             	
         0.016	             	 -4.000e-004 	
         0.064	  0.000e+000 	             	
         0.080	             	 -4.000e-004 	
         0.128	  0.000e+000 	             	
         0.144	             	 -3.000e-004 	
         0.192	  0.000e+000 	             	
         0.208	             	 -3.000e-004 	
         0.256	  0.000e+000 	             	
         0.304	             	 -4.000e-004 	
         0.320	  0.000e+000 	             	
         0.368	             	 -4.000e-004 	
         0.384	  0.000e+000 	             	
         0.432	             	 -4.000e-004 	
         0.448	  0.000e+000 	             	
         0.496	             	 -4.000e-004 	
         0.544	  0.000e+000 	             	
         0.560	             	 -4.000e-004 	
         0.608	  0.000e+000 	             	
         0.624	             	 -4.000e-004 	
         0.672	  0.000e+000 	             	
         0.688	             	 -4.000e-004 	
         0.736	  0.000e+000 	             	
         0.752	             	 -4.000e-004 	
         0.800	  0.000e+000 	             	
         0.816	             	 -4.000e-004 	
         0.864	  0.000e+000 	             	
         0.880	             	 -4.000e-004 	
         0.928	  0.000e+000 	             	
         0.944	             	 -5.000e-004 	
         0.992	  0.000e+000 	             	
         1.040	             	 -4.000e-004 	
         1.056	  0.000e+000 	             	
         1.104	             	 -4.000e-004 	
         1.120	  0.000e+000 	             	
         1.168	             	 -4.000e-004 	
         1.184	  0.000e+000 	             	
         1.232	             	 -4.000e-004 	
         1.248	  0.000e+000 	             	
         1.296	             	 -5.000e-004 	
         1.344	  0.000e+000 	             	
         1.360	             	 -5.000e-004 	
         1.408	  0.000e+000 	             	
         1.424	             	 -4.000e-004 	
         1.472	  0.000e+000 	             	
         1.488	             	 -5.000e-004 	
         1.536	  0.000e+000 	             	
         1.552	             	 -5.000e-004 	
         1.600	  0.000e+000 	             	
         1.616	             	 -4.000e-004 	
         1.664	  0.000e+000 	             	
         1.680	             	 -4.000e-004 	
         1.728	  0.000e+000 	             	
         1.744	             	 -4.000e-004 	
         1.792	  0.000e+000 	             	
         1.808	             	 -4.000e-004 	
         1.856	  0.000e+000 	             	
         1.904	             	 -5.000e-004 	
         1.920	  0.000e+000 	             	
         1.968	             	 -5.000e-004 	
         1.984	  0.000e+000 	             	
         2.032	             	 -5.000e-004 	
         2.048	  0.000e+000 	             	
         2.096	             	 -5.000e-004 	
         2.144	  0.000e+000 	             	
         2.160	             	 -5.000e-004 	
         2.208	  0.000e+000 	             	
         2.224	             	 -5.000e-004 	
         2.272	  0.000e+000 	             	
         2.288	             	 -5.000e-004 	
         2.336	  0.000e+000 	             	
         2.352	             	 -5.000e-004 	
         2.400	  0.000e+000 	             	
         2.416	             	 -4.000e-004 	
         2.464	  0.000e+000 	             	
         2.480	             	 -4.000e-004 	
         2.528	  0.000e+000 	             	
         2.544	             	 -4.000e-004 	
         2.592	  0.000e+000 	             	
         2.608	             	 -4.000e-004 	
         2.656	  0.000e+000 	             	
         2.704	             	 -3.000e-004 	
         2.720	  0.000e+000 	             	
         2.768	             	 -3.000e-004 	
         2.784	  0.000e+000 	             	
         2.832	             	 -3.000e-004 	
         2.848	  0.000e+000 	             	
         2.896	             	 -4.000e-004 	
         2.944	  0.000e+000 	             	
         2.960	             	 -5.000e-004 	
         3.008	  0.000e+000 	             	
         3.024	             	 -5.000e-004 	
         3.072	  0.000e+000 	             	
         3.088	             	 -5.000e-004 	
         3.136	  0.000e+000 	             	
         3.152	             	 -5.000e-004 	
         3.200	  0.000e+000 	             	
         3.216	             	 -5.000e-004 	
         3.264	  0.000e+000 	             	
         3.280	             	 -5.000e-004 	
         3.328	  0.000e+000 	             	
         3.344	             	 -4.000e-004 	
         3.392	  0.000e+000 	             	
         3.408	             	 -3.000e-004 	
         3.456	  0.000e+000 	             	
         3.504	             	 -4.000e-004 	
         3.520	  0.000e+000 	             	
         3.568	             	 -4.000e-004 	
         3.584	  0.000e+000 	             	
         3.632	             	 -4.000e-004 	
         3.648	  0.000e+000 	             	
         3.696	             	 -4.000e-004 	
         3.744	  0.000e+000 	             	
         3.760	             	 -4.000e-004 	
         3.808	  0.000e+000 	             	
         3.824	             	 -4.000e-004 	
         3.872	  0.000e+000 	             	
         3.888	             	 -4.000e-004 	
         3.936	  0.000e+000 	             	
         3.952	             	 -5.000e-004 	
         4.000	  0.000e+000 	             	
         4.016	             	 -5.000e-004 	
         4.064	  0.000e+000 	             	
         4.080	             	 -5.000e-004 	
         4.128	  0.000e+000 	             	
         4.144	             	 -5.000e-004 	
         4.192	  0.000e+000 	             	
         4.208	             	 -5.000e-004 	
         4.256	  0.000e+000 	             	
         4.304	             	 -5.000e-004 	
         4.320	  0.000e+000 	             	
         4.368	             	 -5.000e-004 	
         4.384	  0.000e+000 	             	
         4.432	             	 -5.000e-004 	
         4.448	  0.000e+000 	             	
         4.496	             	 -5.000e-004 	
         4.544	  0.000e+000 	             	
         4.560	             	 -5.000e-004 	
         4.608	  0.000e+000 	             	
         4.624	             	 -6.000e-004 	
         4.672	  0.000e+000 	             	
         4.688	             	 -6.000e-004 	
         4.736	  0.000e+000 	             	
         4.752	             	 -5.000e-004 	
         4.800	  0.000e+000 	             	
         4.816	             	 -5.000e-004 	
         4.864	  0.000e+000 	             	
         4.880	             	 -4.000e-004 	
         4.928	  0.000e+000 	             	
         4.944	             	 -4.000e-004 	
         4.992	  0.000e+000 	             	
         5.008	             	 -4.000e-004 	
         5.056	  0.000e+000 	             	
         5.104	             	 -5.000e-004 	
         5.120	  0.000e+000 	             	
         5.168	             	 -5.000e-004 	
         5.184	  0.000e+000 	             	
         5.232	             	 -4.000e-004 	
         5.248	  0.000e+000 	             	
         5.296	             	 -3.000e-004 	
         5.344	  0.000e+000 	             	
         5.360	             	 -3.000e-004 	
         5.408	  0.000e+000 	             	
         5.424	             	 -3.000e-004 	
         5.472	  0.000e+000 	             	
         5.488	             	 -3.000e-004 	
         5.536	  0.000e+000 	             	
         5.552	             	 -3.000e-004 	
         5.600	  0.000e+000 	             	
         5.616	             	 -4.000e-004 	
         5.664	  0.000e+000 	             	
         5.680	             	 -4.000e-004 	
         5.728	  0.000e+000 	             	
         5.744	             	 -5.000e-004 	
         5.792	  0.000e+000 	             	
         5.808	             	 -5.000e-004 	
         5.856	  0.000e+000 	             	
         5.904	             	 -5.000e-004 	
         5.920	  0.000e+000 	             	
         5.968	             	 -5.000e-004 	
         5.984	  0.000e+000 	             	
         6.032	             	 -5.000e-004 	
         6.048	  0.000e+000 	             	
         6.096	             	 -4.000e-004 	
         6.144	  0.000e+000 	             	
         6.160	             	 -4.000e-004 	
         6.208	  0.000e+000 	             	
         6.224	             	 -4.000e-004 	
         6.272	  0.000e+000 	             	
         6.288	             	 -4.000e-004 	
         6.336	  0.000e+000 	             	
         6.352	             	 -4.000e-004 	
         6.400	  0.000e+000 	             	
         6.416	             	 -5.000e-004 	
         6.464	  0.000e+000 	             	
         6.480	             	 -5.000e-004 	
         6.528	  0.000e+000 	             	
         6.544	             	 -5.000e-004 	
         6.592	  0.000e+000 	             	
         6.608	             	 -5.000e-004 	
         6.656	  0.000e+000 	             	
         6.704	             	 -5.000e-004 	
         6.720	  0.000e+000 	             	
         6.768	             	 -4.000e-004 	
         6.784	  0.000e+000 	             	
         6.832	             	 -4.000e-004 	
         6.848	  0.000e+000 	             	
         6.896	             	 -4.000e-004 	
         6.944	  0.000e+000 	             	
         6.960	             	 -4.000e-004 	
         7.008	  0.000e+000 	             	
         7.024	             	 -4.000e-004 	
         7.072	  0.000e+000 	             	
         7.088	             	 -5.000e-004 	
         7.136	  0.000e+000 	             	
         7.152	             	 -5.000e-004 	
         7.200	  0.000e+000 	             	
         7.216	             	 -4.000e-004 	
         7.264	  0.000e+000 	             	
         7.280	             	 -3.000e-004 	
         7.328	  0.000e+000 	             	
         7.344	             	 -4.000e-004 	
         7.392	  0.000e+000 	             	
         7.408	             	 -5.000e-004 	
         7.456	  0.000e+000 	             	
         7.504	             	 -5.000e-004 	
         7.520	  0.000e+000 	             	
         7.568	             	 -6.000e-004 	
         7.584	  0.000e+000 	             	
         7.632	             	 -6.000e-004 	
         7.649	  0.000e+000 	             	
         7.696	             	 -6.000e-004 	
         7.744	  0.000e+000 	             	
         7.760	             	 -5.000e-004 	
         7.808	  0.000e+000 	             	
         7.824	             	 -4.000e-004 	
         7.872	  0.000e+000 	             	
         7.888	             	 -5.000e-004 	
         7.936	  0.000e+000 	             	
         7.952	             	 -5.000e-004 	
         8.000	  0.000e+000 	             	
         8.016	             	 -6.000e-004 	
         8.064	  0.000e+000 	             	
         8.080	             	 -6.000e-004 	
         8.128	  0.000e+000 	             	
         8.144	             	 -6.000e-004 	
         8.192	  0.000e+000 	             	
         8.208	             	 -6.000e-004 	
         8.256	  0.000e+000 	             	
         8.304	             	 -6.000e-004 	
         8.320	  0.000e+000 	             	
         8.368	             	 -5.000e-004 	
         8.384	  0.000e+000 	             	
         8.432	             	 -5.000e-004 	
         8.448	  0.000e+000 	             	
         8.496	             	 -5.000e-004 	
         8.544	  0.000e+000 	             	
         8.560	             	 -5.000e-004 	
         8.608	  0.000e+000 	             	
         8.624	             	 -5.000e-004 	
         8.672	  0.000e+000 	             	
         8.688	             	 -6.000e-004 	
         8.736	  0.000e+000 	             	
         8.752	             	 -6.000e-004 	
         8.800	  0.000e+000 	             	
         8.816	             	 -5.000e-004 	
         8.864	  0.000e+000 	             	
         8.880	             	 -5.000e-004 	
         8.928	  0.000e+000 	             	
         8.944	             	 -5.000e-004 	
         8.992	  0.000e+000 	             	
         9.008	             	 -4.000e-004 	
         9.056	  0.000e+000 	             	
         9.104	             	 -5.000e-004 	
         9.120	  0.000e+000 	             	
         9.168	             	 -5.000e-004 	
         9.184	  0.000e+000 	             	
         9.232	             	 -5.000e-004 	
         9.248	  0.000e+000 	             	
         9.296	             	 -5.000e-004 	
         9.344	  0.000e+000 	             	
         9.360	             	 -5.000e-004 	
         9.408	  0.000e+000 	             	
         9.424	             	 -6.000e-004 	
         9.472	  0.000e+000 	             	
         9.488	             	 -6.000e-004 	
         9.536	  0.000e+000 	             	
         9.552	             	 -6.000e-004 	
         9.600	  0.000e+000 	             	
         9.616	             	 -6.000e-004 	
         9.664	  0.000e+000 	             	
         9.680	             	 -5.000e-004 	
         9.728	  0.000e+000 	             	
         9.744	             	 -5.000e-004 	
         9.792	  0.000e+000 	             	
         9.808	             	 -5.000e-004 	
         9.856	  0.000e+000 	             	
         9.904	             	 -5.000e-004 	
         9.920	  0.000e+000 	             	
         9.968	             	 -6.000e-004 	
         9.985	  0.000e+000 	             	
        10.033	             	 -5.000e-004 	
        10.049	  0.000e+000 	             	
        10.097	             	 -4.000e-004 	
        10.144	  0.000e+000 	             	
        10.160	             	 -3.000e-004 	
        10.209	  0.000e+000 	             	
        10.224	             	 -3.000e-004 	
        10.273	  0.000e+000 	             	
        10.289	             	 -3.000e-004 	
        10.336	  0.000e+000 	             	
        10.352	             	 -3.000e-004 	
        10.401	  0.000e+000 	             	
        10.417	             	 -4.000e-004 	
        10.464	  0.000e+000 	             	
        10.480	             	 -5.000e-004 	
        10.529	  0.000e+000 	             	
        10.544	             	 -5.000e-004 	
        10.592	  0.000e+000 	             	
        10.608	             	 -5.000e-004 	
        10.656	  0.000e+000 	             	
        10.704	             	 -5.000e-004 	
        10.720	  0.000e+000 	             	
        10.769	             	 -4.000e-004 	
        10.784	  0.000e+000 	             	
        10.833	             	 -4.000e-004 	
        10.848	  0.000e+000 	             	
        10.896	             	 -5.000e-004 	
        10.944	  0.000e+000 	             	
        10.960	             	 -5.000e-004 	
        11.008	  0.000e+000 	             	
        11.024	             	 -6.000e-004 	
        11.072	  0.000e+000 	             	
        11.088	             	 -6.000e-004 	
        11.136	  0.000e+000 	             	
        11.152	             	 -7.000e-004 	
        11.200	  0.000e+000 	             	
        11.216	             	 -6.000e-004 	
        11.264	  0.000e+000 	             	
        11.280	             	 -6.000e-004 	
        11.328	  0.000e+000 	             	
        11.344	             	 -6.000e-004 	
        11.392	  0.000e+000 	             	
        11.408	             	 -6.000e-004 	
        11.456	  0.000e+000 	             	
        11.504	             	 -5.000e-004 	
        11.520	  0.000e+000 	             	
        11.568	             	 -4.000e-004 	
        11.584	  0.000e+000 	             	
        11.632	             	 -4.000e-004 	
        11.648	  0.000e+000 	             	
        11.696	             	 -4.000e-004 	
        11.712	  0.000e+000 	             	
        11.761	             	 -4.000e-004 	
        11.808	  0.000e+000 	             	
        11.824	             	 -4.000e-004 	
        11.872	  0.000e+000 	             	
        11.888	             	 -4.000e-004 	
        11.937	  0.000e+000 	             	
        11.952	             	 -5.000e-004 	
        12.000	  0.000e+000 	             	
        12.016	             	 -6.000e-004 	
        12.064	  0.000e+000 	             	
        12.081	             	 -5.000e-004 	
        12.128	  0.000e+000 	             	
        12.144	             	 -5.000e-004 	
        12.193	  0.000e+000 	             	
        12.208	             	 -4.000e-004 	
        12.256	  0.000e+000 	             	
        12.304	             	 -4.000e-004 	
        12.320	  0.000e+000 	             	
        12.368	             	 -5.000e-004 	
        12.384	  0.000e+000 	             	
        12.432	             	 -5.000e-004 	
        12.448	  0.000e+000 	             	
        12.496	             	 -5.000e-004 	
        12.512	  0.000e+000 	             	
        12.560	             	 -5.000e-004 	
        12.608	  0.000e+000 	             	
        12.624	             	 -5.000e-004 	
        12.672	  0.000e+000 	             	
        12.688	             	 -5.000e-004 	
        12.736	  0.000e+000 	             	
        12.752	             	 -5.000e-004 	
        12.800	  0.000e+000 	             	
        12.816	             	 -5.000e-004 	
        12.864	  0.000e+000 	             	
        12.880	             	 -5.000e-004 	
        12.928	  0.000e+000 	             	
        12.944	             	 -5.000e-004 	
        12.992	  0.000e+000 	             	
        13.008	             	 -4.000e-004 	
        13.056	  0.000e+000 	             	
        13.072	             	 -4.000e-004 	
        13.120	  0.000e+000 	             	
        13.168	             	 -4.000e-004 	
        13.184	  0.000e+000 	             	
        13.232	             	 -4.000e-004 	
        13.248	  0.000e+000 	             	
        13.296	             	 -3.000e-004 	
        13.312	  0.000e+000 	             	
        13.360	             	 -3.000e-004 	
        13.408	  0.000e+000 	             	
        13.424	             	 -4.000e-004 	
        13.472	  0.000e+000 	             	
        13.488	             	 -4.000e-004 	
        13.536	  0.000e+000 	             	
        13.552	             	 -5.000e-004 	
        13.600	  0.000e+000 	             	
        13.616	             	 -5.000e-004 	
        13.664	  0.000e+000 	             	
        13.680	             	 -4.000e-004 	
        13.728	  0.000e+000 	             	
        13.744	             	 -4.000e-004 	
        13.792	  0.000e+000 	             	
        13.808	             	 -5.000e-004 	
        13.856	  0.000e+000 	             	
        13.872	             	 -5.000e-004 	
        13.920	  0.000e+000 	             	
        13.968	             	 -5.000e-004 	
        13.984	  0.000e+000 	             	
        14.032	             	 -5.000e-004 	
        14.048	  0.000e+000 	             	
        14.096	             	 -4.000e-004 	
        14.112	  0.000e+000 	             	
        14.160	             	 -4.000e-004 	
        14.208	  0.000e+000 	             	
        14.224	             	 -4.000e-004 	
        14.272	  0.000e+000 	             	
        14.288	             	 -4.000e-004 	
        14.336	  0.000e+000 	             	
        14.352	             	 -4.000e-004 	
        14.400	  0.000e+000 	             	
        14.416	             	 -5.000e-004 	
        14.464	  0.000e+000 	             	
        14.480	             	 -5.000e-004 	
        14.528	  0.000e+000 	             	
        14.544	             	 -5.000e-004 	
        14.592	  0.000e+000 	             	
        14.608	             	 -5.000e-004 	
        14.656	  0.000e+000 	             	
        14.672	             	 -5.000e-004 	
        14.720	  0.000e+000 	             	
        14.768	             	 -4.000e-004 	
        14.784	  0.000e+000 	             	
        14.832	             	 -4.000e-004 	
        14.848	  0.000e+000 	             	
        14.896	             	 -5.000e-004 	
        14.912	  0.000e+000 	             	
        14.960	             	 -5.000e-004 	
        15.008	  0.000e+000 	             	
        15.024	             	 -4.000e-004 	
        15.072	  0.000e+000 	             	
        15.088	             	 -4.000e-004 	
        15.136	  0.000e+000 	             	
        15.152	             	 -4.000e-004 	
        15.200	  0.000e+000 	             	
        15.216	             	 -5.000e-004 	
        15.264	  0.000e+000 	             	
        15.280	             	 -6.000e-004 	
        15.328	  0.000e+000 	             	
        15.344	             	 -6.000e-004 	
        15.392	  0.000e+000 	             	
        15.408	             	 -6.000e-004 	
        15.456	  0.000e+000 	             	
        15.472	             	 -6.000e-004 	
        15.520	  0.000e+000 	             	
        15.568	             	 -5.000e-004 	
        15.584	  0.000e+000 	             	
        15.632	             	 -5.000e-004 	
        15.648	  0.000e+000 	             	
        15.696	             	 -4.000e-004 	
        15.712	  0.000e+000 	             	
        15.760	             	 -4.000e-004 	
        15.808	  0.000e+000 	             	
        15.824	             	 -4.000e-004 	
        15.872	  0.000e+000 	             	
        15.888	             	 -3.000e-004 	
        15.936	  0.000e+000 	             	
        15.952	             	 -3.000e-004 	
        16.000	  0.000e+000 	             	
        16.016	             	 -3.000e-004 	
        16.064	  0.000e+000 	             	
        16.080	             	 -2.000e-004 	
        16.128	  0.000e+000 	             	
        16.144	             	 -3.000e-004 	
        16.192	  0.000e+000 	             	
        16.208	             	 -4.000e-004 	
        16.256	  0.000e+000 	             	
        16.272	             	 -4.000e-004 	
        16.320	  0.000e+000 	             	
        16.368	             	 -4.000e-004 	
        16.384	  0.000e+000 	             	
        16.432	             	 -4.000e-004 	
        16.448	  0.000e+000 	             	
        16.496	             	 -4.000e-004 	
        16.512	  0.000e+000 	             	
        16.560	             	 -5.000e-004 	
        16.608	  0.000e+000 	             	
        16.624	             	 -4.000e-004 	
        16.672	  0.000e+000 	             	
        16.688	             	 -4.000e-004 	
        16.736	  0.000e+000 	             	
        16.752	             	 -5.000e-004 	
        16.800	  0.000e+000 	             	
        16.816	             	 -4.000e-004 	
        16.864	  0.000e+000 	             	
        16.880	             	 -5.000e-004 	
        16.928	  0.000e+000 	             	
        16.944	             	 -5.000e-004 	
        16.992	  0.000e+000 	             	
        17.008	             	 -5.000e-004 	
        17.056	  0.000e+000 	             	
        17.072	             	 -5.000e-004 	
        17.120	  0.000e+000 	             	
        17.168	             	 -5.000e-004 	
        17.184	  0.000e+000 	             	
        17.232	             	 -5.000e-004 	
        17.248	  0.000e+000 	             	
        17.296	             	 -5.000e-004 	
        17.312	  0.000e+000 	             	
        17.360	             	 -5.000e-004 	
        17.408	  0.000e+000 	             	
        17.424	             	 -6.000e-004 	
        17.472	  0.000e+000 	             	
        17.488	             	 -6.000e-004 	
        17.536	  0.000e+000 	             	
        17.552	             	 -5.000e-004 	
        17.600	  0.000e+000 	             	
        17.616	             	 -5.000e-004 	
        17.664	  0.000e+000 	             	
        17.680	             	 -4.000e-004 	
        17.728	  0.000e+000 	             	
        17.744	             	 -3.000e-004 	
        17.792	  0.000e+000 	             	
        17.808	             	 -3.000e-004 	
        17.856	  0.000e+000 	             	
        17.872	             	 -3.000e-004 	
        17.920	  0.000e+000 	             	
        17.968	             	 -4.000e-004 	
        17.984	  0.000e+000 	             	
        18.032	             	 -5.000e-004 	
        18.048	  0.000e+000 	             	
        18.096	             	 -5.000e-004 	
        18.112	  0.000e+000 	             	
        18.160	             	 -5.000e-004 	
        18.208	  0.000e+000 	             	
        18.224	             	 -6.000e-004 	
        18.272	  0.000e+000 	             	
        18.288	             	 -5.000e-004 	
        18.336	  0.000e+000 	             	
        18.352	             	 -5.000e-004 	
        18.400	  0.000e+000 	             	
        18.416	             	 -5.000e-004 	
        18.464	  0.000e+000 	             	
        18.480	             	 -5.000e-004 	
        18.528	  0.000e+000 	             	
        18.544	             	 -5.000e-004 	
        18.592	  0.000e+000 	             	
        18.608	             	 -5.000e-004 	
        18.656	  0.000e+000 	             	
        18.672	             	 -5.000e-004 	
        18.720	  0.000e+000 	             	
        18.768	             	 -5.000e-004 	
        18.784	  0.000e+000 	             	
        18.832	             	 -5.000e-004 	
        18.848	  0.000e+000 	             	
        18.896	             	 -5.000e-004 	
        18.912	  0.000e+000 	             	
        18.960	             	 -4.000e-004 	
        19.008	  0.000e+000 	             	
        19.024	             	 -4.000e-004 	
        19.072	  0.000e+000 	             	
        19.088	             	 -4.000e-004 	
        19.136	  0.000e+000 	             	
        19.152	             	 -4.000e-004 	
        19.200	  0.000e+000 	             	
        19.216	             	 -4.000e-004 	
        19.264	  0.000e+000 	             	
        19.280	             	 -3.000e-004 	
        19.328	  0.000e+000 	             	
        19.344	             	 -3.000e-004 	
        19.392	  0.000e+000 	             	
        19.408	             	 -3.000e-004 	
        19.456	  0.000e+000 	             	
        19.472	             	 -4.000e-004 	
        19.520	  0.000e+000 	             	
        19.568	             	 -5.000e-004 	
        19.584	  0.000e+000 	             	
        19.632	             	 -5.000e-004 	
        19.648	  0.000e+000 	             	
        19.696	             	 -4.000e-004 	
        19.712	  0.000e+000 	             	
        19.760	             	 -4.000e-004 	
        19.808	  0.000e+000 	             	
        19.824	             	 -4.000e-004 	
        19.872	  0.000e+000 	             	
        19.888	             	 -4.000e-004 	
        19.936	  0.000e+000 	             	
        19.952	             	 -4.000e-004 	
        20.000	  0.000e+000 	             	
        20.016	             	 -4.000e-004 	
        20.064	  0.000e+000 	             	
        20.080	             	 -4.000e-004 	
        20.128	  0.000e+000 	             	
        20.144	             	 -4.000e-004 	
        20.192	  0.000e+000 	             	
        20.208	             	 -4.000e-004 	
        20.256	  0.000e+000 	             	
        20.272	             	 -4.000e-004 	
        20.320	  0.000e+000 	             	
        20.368	             	 -4.000e-004 	
        20.384	  0.000e+000 	             	
        20.432	             	 -5.000e-004 	
        20.448	  0.000e+000 	             	
        20.496	             	 -5.000e-004 	
        20.512	  0.000e+000 	             	
        20.560	             	 -6.000e-004 	
        20.608	  0.000e+000 	             	
        20.624	             	 -6.000e-004 	
        20.672	  0.000e+000 	             	
        20.688	             	 -5.000e-004 	
        20.736	  0.000e+000 	             	
        20.752	             	 -5.000e-004 	
        20.800	  0.000e+000 	             	
        20.816	             	 -4.000e-004 	
        20.864	  0.000e+000 	             	
        20.880	             	 -4.000e-004 	
        20.928	  0.000e+000 	             	
        20.944	             	 -5.000e-004 	
        20.992	  0.000e+000 	             	
        21.008	             	 -5.000e-004 	
        21.056	  0.000e+000 	             	
        21.072	             	 -5.000e-004 	
        21.120	  0.000e+000 	             	
        21.168	             	 -5.000e-004 	
        21.184	  0.000e+000 	             	
        21.232	             	 -5.000e-004 	
        21.248	  0.000e+000 	             	
        21.296	             	 -4.000e-004 	
        21.312	  0.000e+000 	             	
        21.360	             	 -4.000e-004 	
        21.408	  0.000e+000 	             	
        21.424	             	 -4.000e-004 	
        21.472	  0.000e+000 	             	
        21.488	             	 -4.000e-004 	
        21.536	  0.000e+000 	             	
        21.552	             	 -4.000e-004 	
        21.600	  0.000e+000 	             	
        21.616	             	 -4.000e-004 	
        21.664	  0.000e+000 	             	
        21.680	             	 -4.000e-004 	
        21.728	  0.000e+000 	             	
        21.744	             	 -4.000e-004 	
        21.792	  0.000e+000 	             	
        21.808	             	 -5.000e-004 	
        21.856	  0.000e+000 	             	
        21.872	             	 -6.000e-004 	
        21.920	  0.000e+000 	             	
        21.968	             	 -6.000e-004 	
        21.984	  0.000e+000 	             	
        22.032	             	 -5.000e-004 	
        22.048	  0.000e+000 	             	
        22.096	             	 -4.000e-004 	
        22.112	  0.000e+000 	             	
        22.160	             	 -4.000e-004 	
        22.208	  0.000e+000 	             	
        22.224	             	 -4.000e-004 	
        22.272	  0.000e+000 	             	
        22.288	             	 -4.000e-004 	
        22.336	  0.000e+000 	             	
        22.352	             	 -4.000e-004 	
        22.400	  0.000e+000 	             	
        22.416	             	 -4.000e-004 	
        22.464	  0.000e+000 	             	
        22.480	             	 -4.000e-004 	
        22.528	  0.000e+000 	             	
        22.544	             	 -5.000e-004 	
        22.592	  0.000e+000 	             	
        22.608	             	 -5.000e-004 	
        22.656	  0.000e+000 	             	
        22.672	             	 -5.000e-004 	
        22.720	  0.000e+000 	             	
        22.768	             	 -5.000e-004 	
        22.784	  0.000e+000 	             	
        22.832	             	 -5.000e-004 	
        22.848	  0.000e+000 	             	
        22.896	             	 -6.000e-004 	
        22.912	  0.000e+000 	             	
        22.960	             	 -6.000e-004 	
        23.008	  0.000e+000 	             	
        23.024	             	 -7.000e-004 	
        23.072	  0.000e+000 	             	
        23.088	             	 -7.000e-004 	
        23.136	  0.000e+000 	             	
        23.152	             	 -7.000e-004 	
        23.200	  0.000e+000 	             	
        23.216	             	 -7.000e-004 	
        23.264	  0.000e+000 	             	
        23.280	             	 -6.000e-004 	
        23.328	  0.000e+000 	             	
        23.344	             	 -5.000e-004 	
        23.392	  0.000e+000 	             	
        23.408	             	 -5.000e-004 	
        23.456	  0.000e+000 	             	
        23.472	             	 -4.000e-004 	
        23.520	  0.000e+000 	             	
        23.568	             	 -4.000e-004 	
        23.584	  0.000e+000 	             	
        23.632	             	 -5.000e-004 	
        23.648	  0.000e+000 	             	
        23.696	             	 -5.000e-004 	
        23.712	  0.000e+000 	             	
        23.760	             	 -4.000e-004 	
        23.808	  0.000e+000 	             	
        23.824	             	 -4.000e-004 	
        23.872	  0.000e+000 	             	
        23.888	             	 -5.000e-004 	
        23.936	  0.000e+000 	             	
        23.952	             	 -5.000e-004 	
        24.000	  0.000e+000 	             	
        24.016	             	 -5.000e-004 	
        24.064	  0.000e+000 	             	
        24.080	             	 -6.000e-004 	
        24.128	  0.000e+000 	             	
        24.144	             	 -6.000e-004 	
        24.192	  0.000e+000 	             	
        24.208	             	 -6.000e-004 	
        24.256	  0.000e+000 	             	
        24.272	             	 -6.000e-004 	
        24.320	  0.000e+000 	             	
        24.368	             	 -5.000e-004 	
        24.384	  0.000e+000 	             	
        24.432	             	 -5.000e-004 	
        24.448	  0.000e+000 	             	
        24.496	             	 -5.000e-004 	
        24.512	  0.000e+000 	             	
        24.560	             	 -4.000e-004 	
        24.576	  0.000e+000 	             	
        24.624	             	 -4.000e-004 	
        24.672	  0.000e+000 	             	
        24.688	             	 -4.000e-004 	
        24.736	  0.000e+000 	             	
        24.752	             	 -4.000e-004 	
        24.800	  0.000e+000 	             	
        24.816	             	 -4.000e-004 	
        24.864	  0.000e+000 	             	
        24.880	             	 -5.000e-004 	
        24.928	  0.000e+000 	             	
        24.944	             	 -5.000e-004 	
        24.992	  0.000e+000 	             	
        25.008	             	 -6.000e-004 	
        25.056	  0.000e+000 	             	
        25.072	             	 -6.000e-004 	
        25.120	  0.000e+000 	             	
        25.168	             	 -6.000e-004 	
        25.184	  0.000e+000 	             	
        25.232	             	 -6.000e-004 	
        25.248	  0.000e+000 	             	
        25.296	             	 -6.000e-004 	
        25.312	  0.000e+000 	             	
        25.360	             	 -5.000e-004 	
        25.376	  0.000e+000 	             	
        25.424	             	 -5.000e-004 	
        25.472	  0.000e+000 	             	
        25.488	             	 -4.000e-004 	
        25.536	  0.000e+000 	             	
        25.552	             	 -4.000e-004 	
        25.600	  0.000e+000 	             	
        25.616	             	 -4.000e-004 	
        25.664	  0.000e+000 	             	
        25.680	             	 -4.000e-004 	
        25.728	  0.000e+000 	             	
        25.744	             	 -4.000e-004 	
        25.792	  0.000e+000 	             	
        25.808	             	 -4.000e-004 	
        25.856	  0.000e+000 	             	
        25.872	             	 -5.000e-004 	
        25.920	  0.000e+000 	             	
        25.936	             	 -4.000e-004 	
        25.984	  0.000e+000 	             	
        26.032	             	 -4.000e-004 	
        26.048	  0.000e+000 	             	
        26.096	             	 -4.000e-004 	
        26.112	  0.000e+000 	             	
        26.160	             	 -4.000e-004 	
        26.176	  0.000e+000 	             	
        26.224	             	 -4.000e-004 	
        26.272	  0.000e+000 	             	
        26.287	             	 -5.000e-004 	
        26.336	  0.000e+000 	             	
        26.352	             	 -5.000e-004 	
        26.400	  0.000e+000 	             	
        26.416	             	 -5.000e-004 	
        26.464	  0.000e+000 	             	
        26.480	             	 -5.000e-004 	
        26.528	  0.000e+000 	             	
        26.544	             	 -5.000e-004 	
        26.592	  0.000e+000 	             	
        26.608	             	 -6.000e-004 	
        26.656	  0.000e+000 	             	
        26.672	             	 -5.000e-004 	
        26.720	  0.000e+000 	             	
        26.736	             	 -5.000e-004 	
        26.784	  0.000e+000 	             	
        26.832	             	 -5.000e-004 	
        26.848	  0.000e+000 	             	
        26.895	             	 -5.000e-004 	
        26.911	  0.000e+000 	             	
        26.960	             	 -5.000e-004 	
        26.976	  0.000e+000 	             	
        27.024	             	 -6.000e-004 	
        27.072	  0.000e+000 	             	
        27.088	             	 -5.000e-004 	
        27.136	  0.000e+000 	             	
        27.152	             	 -5.000e-004 	
        27.199	  0.000e+000 	             	
        27.216	             	 -4.000e-004 	
        27.263	  0.000e+000 	             	
        27.279	             	 -4.000e-004 	
        27.328	  0.000e+000 	             	
        27.344	             	 -5.000e-004 	
        27.392	  0.000e+000 	             	
        27.407	             	 -5.000e-004 	
        27.457	  0.000e+000 	             	
        27.472	             	 -5.000e-004 	
        27.520	  0.000e+000 	             	
        27.537	             	 -5.000e-004 	
        27.584	  0.000e+000 	             	
        27.632	             	 -6.000e-004 	
        27.648	  0.000e+000 	             	
        27.697	             	 -6.000e-004 	
        27.712	  0.000e+000 	             	
        27.760	             	 -6.000e-004 	
        27.776	  0.000e+000 	             	
        27.825	             	 -7.000e-004 	
        27.872	  0.000e+000 	             	
        27.888	             	 -7.000e-004 	
        27.936	  0.000e+000 	             	
        27.952	             	 -6.000e-004 	
        28.000	  0.000e+000 	             	
        28.016	             	 -6.000e-004 	
        28.064	  0.000e+000 	             	
        28.081	             	 -6.000e-004 	
        28.128	  0.000e+000 	             	
        28.144	             	 -6.000e-004 	
        28.192	  0.000e+000 	             	
        28.208	             	 -7.000e-004 	
        28.256	  0.000e+000 	             	
        28.272	             	 -6.000e-004 	
        28.320	  0.000e+000 	             	
        28.336	             	 -6.000e-004 	
        28.384	  0.000e+000 	             	
        28.432	             	 -6.000e-004 	
        28.448	  0.000e+000 	             	
        28.496	             	 -6.000e-004 	
        28.512	  0.000e+000 	             	
        28.560	             	 -5.000e-004 	
        28.576	  0.000e+000 	             	
        28.627	             	 -5.000e-004 	
        28.672	  0.000e+000 	             	
        28.688	             	 -5.000e-004 	
        28.736	  0.000e+000 	             	
        28.752	             	 -5.000e-004 	
        28.800	  0.000e+000 	             	
        28.816	             	 -5.000e-004 	
        28.864	  0.000e+000 	             	
        28.880	             	 -5.000e-004 	
        28.928	  0.000e+000 	             	
        28.944	             	 -5.000e-004 	
        28.992	  0.000e+000 	             	
        29.008	             	 -6.000e-004 	
        29.056	  0.000e+000 	             	
        29.072	             	 -6.000e-004 	
        29.120	  0.000e+000 	             	
        29.136	             	 -6.000e-004 	
        29.184	  0.000e+000 	             	
        29.232	             	 -7.000e-004 	
        29.248	  0.000e+000 	             	
        29.296	             	 -6.000e-004 	
        29.312	  0.000e+000 	             	
        29.360	             	 -6.000e-004 	
        29.376	  0.000e+000 	             	
        29.424	             	 -5.000e-004 	
        29.472	  0.000e+000 	             	
        29.488	             	 -5.000e-004 	
        29.536	  0.000e+000 	             	
        29.552	             	 -5.000e-004 	
        29.600	  0.000e+000 	             	
        29.616	             	 -5.000e-004 	
        29.664	  0.000e+000 	             	
        29.680	             	 -5.000e-004 	
        29.728	  0.000e+000 	             	
        29.744	             	 -4.000e-004 	
        29.792	  0.000e+000 	             	
        29.808	             	 -5.000e-004 	
        29.856	  0.000e+000 	             	
        29.872	             	 -5.000e-004 	
        29.920	  0.000e+000 	             	
        29.937	             	 -5.000e-004 	
        29.984	  0.000e+000 	             	
        30.032	             	 -6.000e-004 	
        30.048	  0.000e+000 	             	
        30.096	             	 -6.000e-004 	
        30.112	  0.000e+000 	             	
        30.160	             	 -6.000e-004 	
        30.176	  0.000e+000 	             	
        30.224	             	 -7.000e-004 	
        30.272	  0.000e+000 	             	
        30.288	             	 -7.000e-004 	
        30.336	  0.000e+000 	             	
        30.352	             	 -6.000e-004 	
        30.400	  0.000e+000 	             	
        30.416	             	 -5.000e-004 	
        30.464	  0.000e+000 	             	
        30.480	             	 -4.000e-004 	
        30.528	  0.000e+000 	             	
        30.544	             	 -4.000e-004 	
        30.592	  0.000e+000 	             	
        30.608	             	 -4.000e-004 	
        30.656	  0.000e+000 	             	
        30.672	             	 -4.000e-004 	
        30.720	  0.000e+000 	             	
        30.736	             	 -5.000e-004 	
        30.784	  0.000e+000 	             	
        30.832	             	 -5.000e-004 	
        30.848	  0.000e+000 	             	
        30.896	             	 -5.000e-004 	
        30.912	  0.000e+000 	             	
        30.960	             	 -6.000e-004 	
        30.976	  0.000e+000 	             	
        31.024	             	 -6.000e-004 	
        31.072	  0.000e+000 	             	
        31.088	             	 -7.000e-004 	
        31.136	  0.000e+000 	             	
        31.152	             	 -7.000e-004 	
        31.200	  0.000e+000 	             	
        31.216	             	 -6.000e-004 	
        31.264	  0.000e+000 	             	
        31.280	             	 -6.000e-004 	
        31.328	  0.000e+000 	             	
        31.344	             	 -6.000e-004 	
        31.392	  0.000e+000 	             	
        31.408	             	 -6.000e-004 	
        31.456	  0.000e+000 	             	
        31.472	             	 -6.000e-004 	
        31.520	  0.000e+000 	             	
        31.536	             	 -6.000e-004 	
        31.584	  0.000e+000 	             	
        31.632	             	 -6.000e-004 	
        31.648	  0.000e+000 	             	
        31.696	             	 -6.000e-004 	
        31.712	  0.000e+000 	             	
        31.760	             	 -6.000e-004 	
        31.776	  0.000e+000 	             	
        31.824	             	 -6.000e-004 	
        31.872	  0.000e+000 	             	
        31.888	             	 -5.000e-004 	
        31.936	  0.000e+000 	             	
        31.952	             	 -5.000e-004 	
        32.000	  0.000e+000 	             	
        32.016	             	 -5.000e-004 	
        32.064	  0.000e+000 	             	
        32.080	             	 -5.000e-004 	
        32.128	  0.000e+000 	             	
        32.144	             	 -5.000e-004 	
        32.192	  0.000e+000 	             	
        32.208	             	 -6.000e-004 	
        32.256	  0.000e+000 	             	
        32.272	             	 -6.000e-004 	
        32.320	  0.000e+000 	             	
        32.336	             	 -6.000e-004 	
        32.384	  0.000e+000 	             	
        32.432	             	 -6.000e-004 	
        32.449	  0.000e+000 	             	
        32.496	             	 -6.000e-004 	
        32.512	  0.000e+000 	             	
        32.560	             	 -6.000e-004 	
        32.576	  0.000e+000 	             	
        32.624	             	 -7.000e-004 	
        32.672	  0.000e+000 	             	
        32.688	             	 -7.000e-004 	
        32.736	  0.000e+000 	             	
        32.752	             	 -7.000e-004 	
        32.800	  0.000e+000 	             	
        32.816	             	 -8.000e-004 	
        32.864	  0.000e+000 	             	
        32.880	             	 -8.000e-004 	
        32.928	  0.000e+000 	             	
        32.944	             	 -6.000e-004 	
        32.992	  0.000e+000 	             	
        33.008	             	 -6.000e-004 	
        33.056	  0.000e+000 	             	
        33.072	             	 -6.000e-004 	
        33.120	  0.000e+000 	             	
        33.136	             	 -6.000e-004 	
        33.184	  0.000e+000 	             	
        33.232	             	 -6.000e-004 	
        33.248	  0.000e+000 	             	
        33.296	             	 -6.000e-004 	
        33.312	  0.000e+000 	             	
        33.360	             	 -6.000e-004 	
        33.376	  0.000e+000 	             	
        33.424	             	 -6.000e-004 	
        33.472	  0.000e+000 	             	
        33.488	             	 -5.000e-004 	
        33.536	  0.000e+000 	             	
        33.552	             	 -5.000e-004 	
        33.600	  0.000e+000 	             	
        33.616	             	 -5.000e-004 	
        33.664	  0.000e+000 	             	
        33.680	             	 -5.000e-004 	
        33.728	  0.000e+000 	             	
        33.744	             	 -5.000e-004 	
        33.792	  0.000e+000 	             	
        33.808	             	 -6.000e-004 	
        33.856	  0.000e+000 	             	
        33.872	             	 -6.000e-004 	
        33.920	  0.000e+000 	             	
        33.936	             	 -6.000e-004 	
        33.984	  0.000e+000 	             	
        34.032	             	 -7.000e-004 	
        34.048	  0.000e+000 	             	
        34.096	             	 -6.000e-004 	
        34.112	  0.000e+000 	             	
        34.160	             	 -6.000e-004 	
        34.176	  0.000e+000 	             	
        34.224	             	 -6.000e-004 	
        34.272	  0.000e+000 	             	
        34.288	             	 -6.000e-004 	
        34.336	  0.000e+000 	             	
        34.352	             	 -5.000e-004 	
        34.400	  0.000e+000 	             	
        34.416	             	 -6.000e-004 	
        34.464	  0.000e+000 	             	
        34.480	             	 -6.000e-004 	
        34.528	  0.000e+000 	             	
        34.544	             	 -6.000e-004 	
        34.592	  0.000e+000 	             	
        34.608	             	 -6.000e-004 	
        34.656	  0.000e+000 	             	
        34.672	             	 -5.000e-004 	
        34.720	  0.000e+000 	             	
        34.736	             	 -5.000e-004 	
        34.784	  0.000e+000 	             	
        34.832	             	 -5.000e-004 	
        34.848	  0.000e+000 	             	
        34.896	             	 -5.000e-004 	
        34.912	  0.000e+000 	             	
        34.960	             	 -5.000e-004 	
        34.976	  0.000e+000 	             	
        35.024	             	 -5.000e-004 	
        35.072	  0.000e+000 	             	
        35.088	             	 -5.000e-004 	
        35.136	  0.000e+000 	             	
        35.152	             	 -5.000e-004 	
        35.200	  0.000e+000 	             	
        35.216	             	 -5.000e-004 	
        35.264	  0.000e+000 	             	
        35.280	             	 -5.000e-004 	
        35.328	  0.000e+000 	             	
        35.344	             	 -6.000e-004 	
        35.392	  0.000e+000 	             	
        35.408	             	 -6.000e-004 	
        35.456	  0.000e+000 	             	
        35.472	             	 -5.000e-004 	
        35.520	  0.000e+000 	             	
        35.536	             	 -5.000e-004 	
        35.584	  0.000e+000 	             	
        35.632	             	 -6.000e-004 	
        35.648	  0.000e+000 	             	
        35.696	             	 -6.000e-004 	
        35.712	  0.000e+000 	             	
        35.760	             	 -5.000e-004 	
        35.776	  0.000e+000 	             	
        35.831	             	 -5.000e-004 	
        35.872	  0.000e+000 	             	
        35.888	             	 -4.000e-004 	
        35.936	  0.000e+000 	             	
        35.952	             	 -4.000e-004 	
        36.000	  0.000e+000 	             	
        36.016	             	 -4.000e-004 	
        36.064	  0.000e+000 	             	
        36.080	             	 -5.000e-004 	
        36.128	  0.000e+000 	             	
        36.145	             	 -6.000e-004 	
        36.192	  0.000e+000 	             	
        36.208	             	 -6.000e-004 	
        36.256	  0.000e+000 	             	
        36.272	             	 -6.000e-004 	
        36.320	  0.000e+000 	             	
        36.336	             	 -6.000e-004 	
        36.384	  0.000e+000 	             	
        36.432	             	 -6.000e-004 	
        36.448	  0.000e+000 	             	
        36.496	             	 -6.000e-004 	
        36.512	  0.000e+000 	             	
        36.560	             	 -6.000e-004 	
        36.576	  0.000e+000 	             	
        36.624	             	 -6.000e-004 	
        36.672	  0.000e+000 	             	
        36.688	             	 -6.000e-004 	
        36.736	  0.000e+000 	             	
        36.752	             	 -6.000e-004 	
        36.800	  0.000e+000 	             	
        36.820	             	 -6.000e-004 	
        36.864	  0.000e+000 	             	
        36.880	             	 -6.000e-004 	
        36.928	  0.000e+000 	             	
        36.944	             	 -6.000e-004 	
        36.992	  0.000e+000 	             	
        37.008	             	 -6.000e-004 	
        37.056	  0.000e+000 	             	
        37.072	             	 -6.000e-004 	
        37.120	  0.000e+000 	             	
        37.144	             	 -6.000e-004 	
        37.184	  0.000e+000 	             	
        37.232	             	 -7.000e-004 	
        37.248	  0.000e+000 	             	
        37.296	             	 -7.000e-004 	
        37.312	  0.000e+000 	             	
        37.360	             	 -7.000e-004 	
        37.376	  0.000e+000 	             	
        37.424	             	 -7.000e-004 	
        37.472	  0.000e+000 	             	
        37.488	             	 -6.000e-004 	
        37.536	  0.000e+000 	             	
        37.552	             	 -6.000e-004 	
        37.600	  0.000e+000 	             	
        37.616	             	 -6.000e-004 	
        37.664	  0.000e+000 	             	
        37.686	             	 -5.000e-004 	
        37.728	  0.000e+000 	             	
        37.744	             	 -5.000e-004 	
        37.792	  0.000e+000 	             	
        37.808	             	 -5.000e-004 	
        37.856	  0.000e+000 	             	
        37.872	             	 -6.000e-004 	
        37.920	  0.000e+000 	             	
        37.936	             	 -6.000e-004 	
        37.984	  0.000e+000 	             	
        38.032	             	 -6.000e-004 	
        38.048	  0.000e+000 	             	
        38.096	             	 -6.000e-004 	
        38.112	  0.000e+000 	             	
        38.160	             	 -6.000e-004 	
        38.176	  0.000e+000 	             	
        38.224	             	 -6.000e-004 	
        38.272	  0.000e+000 	             	
        38.288	             	 -6.000e-004 	
        38.336	  0.000e+000 	             	
        38.352	             	 -7.000e-004 	
        38.400	  0.000e+000 	             	
        38.416	             	 -7.000e-004 	
        38.464	  0.000e+000 	             	
        38.480	             	 -7.000e-004 	
        38.528	  0.000e+000 	             	
        38.546	             	 -6.000e-004 	
        38.592	  0.000e+000 	             	
        38.608	             	 -6.000e-004 	
        38.656	  0.000e+000 	             	
        38.672	             	 -6.000e-004 	
        38.720	  0.000e+000 	             	
        38.736	             	 -6.000e-004 	
        38.784	  0.000e+000 	             	
        38.832	             	 -5.000e-004 	
        38.848	  0.000e+000 	             	
        38.898	             	 -5.000e-004 	
        38.912	  0.000e+000 	             	
        38.960	             	 -6.000e-004 	
        38.976	  0.000e+000 	             	
        39.024	             	 -6.000e-004 	
        39.040	  0.000e+000 	             	
        39.088	             	 -5.000e-004 	
        39.136	  0.000e+000 	             	
        39.152	             	 -5.000e-004 	
        39.200	  0.000e+000 	             	
        39.216	             	 -5.000e-004 	
        39.264	  0.000e+000 	             	
        39.280	             	 -6.000e-004 	
        39.328	  0.000e+000 	             	
        39.344	             	 -7.000e-004 	
        39.392	  0.000e+000 	             	
        39.408	             	 -7.000e-004 	
        39.456	  0.000e+000 	             	
        39.472	             	 -7.000e-004 	
        39.520	  0.000e+000 	             	
        39.537	             	 -7.000e-004 	
        39.584	  0.000e+000 	             	
        39.600	             	 -7.000e-004 	
        39.648	  0.000e+000 	             	
        39.696	             	 -7.000e-004 	
        39.712	  0.000e+000 	             	
        39.760	             	 -7.000e-004 	
        39.776	  0.000e+000 	             	
        39.824	             	 -7.000e-004 	
        39.840	  0.000e+000 	             	
        39.888	             	 -6.000e-004 	
        39.936	  0.000e+000 	             	
        39.952	             	 -6.000e-004 	
        40.000	  0.000e+000 	             	
        40.016	             	 -6.000e-004 	
        40.064	  0.000e+000 	             	
        40.080	             	 -6.000e-004 	
        40.128	  0.000e+000 	             	
        40.144	             	 -6.000e-004 	
        40.192	  0.000e+000 	             	
        40.208	             	 -5.000e-004 	
        40.256	  0.000e+000 	             	
        40.272	             	 -5.000e-004 	
        40.320	  0.000e+000 	             	
        40.336	             	 -5.000e-004 	
        40.384	  0.000e+000 	             	
        40.400	             	 -6.000e-004 	
        40.448	  0.000e+000 	             	
        40.496	             	 -7.000e-004 	
        40.512	  0.000e+000 	             	
        40.560	             	 -7.000e-004 	
        40.576	  0.000e+000 	             	
        40.624	             	 -7.000e-004 	
        40.640	  0.000e+000 	             	
        40.688	             	 -6.000e-004 	
        40.736	  0.000e+000 	             	
        40.752	             	 -6.000e-004 	
        40.800	  0.000e+000 	             	
        40.816	             	 -5.000e-004 	
        40.864	  0.000e+000 	             	
        40.880	             	 -5.000e-004 	
        40.928	  0.000e+000 	             	
        40.944	             	 -5.000e-004 	
        40.992	  0.000e+000 	             	
        41.008	             	 -5.000e-004 	
        41.056	  0.000e+000 	             	
        41.080	             	 -5.000e-004 	
        41.120	  0.000e+000 	             	
        41.136	             	 -5.000e-004 	
        41.184	  0.000e+000 	             	
        41.200	             	 -5.000e-004 	
        41.248	  0.000e+000 	             	
        41.296	             	 -5.000e-004 	
        41.312	  0.000e+000 	             	
        41.360	             	 -6.000e-004 	
        41.376	  0.000e+000 	             	
        41.424	             	 -6.000e-004 	
        41.440	  0.000e+000 	             	
        41.488	             	 -6.000e-004 	
        41.536	  0.000e+000 	             	
        41.552	             	 -5.000e-004 	
        41.600	  0.000e+000 	             	
        41.620	             	 -5.000e-004 	
        41.664	  0.000e+000 	             	
        41.680	             	 -5.000e-004 	
        41.728	  0.000e+000 	             	
        41.744	             	 -5.000e-004 	
        41.792	  0.000e+000 	             	
        41.808	             	 -5.000e-004 	
        41.856	  0.000e+000 	             	
        41.872	             	 -5.000e-004 	
        41.920	  0.000e+000 	             	
        41.936	             	 -5.000e-004 	
        41.984	  0.000e+000 	             	
        42.000	             	 -5.000e-004 	
        42.048	  0.000e+000 	             	
        42.096	             	 -5.000e-004 	
        42.112	  0.000e+000 	             	
        42.160	             	 -4.000e-004 	
        42.176	  0.000e+000 	             	
        42.224	             	 -4.000e-004 	
        42.240	  1.000e-005 	             	
        42.288	             	 -4.000e-004 	
        42.336	  1.000e-005 	             	
        42.352	             	 -4.000e-004 	
        42.400	  2.000e-005 	             	
        42.416	             	 -5.000e-004 	
        42.464	  2.000e-005 	             	
        42.480	             	 -5.000e-004 	
        42.528	  3.000e-005 	             	
        42.544	             	 -4.000e-004 	
        42.592	  4.000e-005 	             	
        42.608	             	 -4.000e-004 	
        42.656	  5.000e-005 	             	
        42.672	             	 -4.000e-004 	
        42.720	  7.000e-005 	             	
        42.736	             	 -4.000e-004 	
        42.784	  8.000e-005 	             	
        42.800	             	 -5.000e-004 	
        42.848	  9.000e-005 	             	
        42.896	             	 -5.000e-004 	
        42.912	  9.000e-005 	             	
        42.960	             	 -4.000e-004 	
        42.976	  1.000e-004 	             	
        43.024	             	 -4.000e-004 	
        43.040	  1.100e-004 	             	
        43.088	             	 -4.000e-004 	
        43.136	  1.100e-004 	             	
        43.152	             	 -4.000e-004 	
        43.200	  1.000e-004 	             	
        43.216	             	 -4.000e-004 	
        43.264	  1.000e-004 	             	
        43.280	             	 -3.000e-004 	
        43.328	  1.000e-004 	             	
        43.344	             	 -3.000e-004 	
        43.392	  1.100e-004 	             	
        43.408	             	 -4.000e-004 	
        43.456	  1.100e-004 	             	
        43.472	             	 -4.000e-004 	
        43.520	  1.100e-004 	             	
        43.536	             	 -4.000e-004 	
        43.584	  1.000e-004 	             	
        43.600	             	 -5.000e-004 	
        43.648	  1.100e-004 	             	
        43.696	             	 -5.000e-004 	
        43.712	  1.100e-004 	             	
        43.760	             	 -5.000e-004 	
        43.776	  1.100e-004 	             	
        43.824	             	 -5.000e-004 	
        43.840	  1.100e-004 	             	
        43.888	             	 -4.000e-004 	
        43.936	  1.100e-004 	             	
        43.952	             	 -4.000e-004 	
        44.000	  1.100e-004 	             	
        44.016	             	 -5.000e-004 	
        44.064	  1.100e-004 	             	
        44.080	             	 -5.000e-004 	
        44.128	  1.100e-004 	             	
        44.144	             	 -4.000e-004 	
        44.192	  1.000e-004 	             	
        44.208	             	 -4.000e-004 	
        44.256	  1.000e-004 	             	
        44.272	             	 -5.000e-004 	
        44.320	  1.000e-004 	             	
        44.336	             	 -5.000e-004 	
        44.384	  9.000e-005 	             	
        44.400	             	 -5.000e-004 	
        44.448	  9.000e-005 	             	
        44.496	             	 -5.000e-004 	
        44.512	  9.000e-005 	             	
        44.559	             	 -5.000e-004 	
        44.576	  9.000e-005 	             	
        44.624	             	 -4.000e-004 	
        44.640	  9.000e-005 	             	
        44.688	             	 -4.000e-004 	
        44.736	  1.000e-004 	             	
        44.751	             	 -4.000e-004 	
        44.800	  1.100e-004 	             	
        44.816	             	 -4.000e-004 	
        44.864	  1.100e-004 	             	
        44.879	             	 -4.000e-004 	
        44.928	  1.200e-004 	             	
        44.944	             	 -3.000e-004 	
        44.993	  1.200e-004 	             	
        45.008	             	 -3.000e-004 	
        45.057	  1.200e-004 	             	
        45.072	             	 -3.000e-004 	
        45.121	  1.100e-004 	             	
        45.137	             	 -3.000e-004 	
        45.184	  1.100e-004 	             	
        45.201	             	 -4.000e-004 	
        45.249	  1.100e-004 	             	
        45.296	             	 -4.000e-004 	
        45.313	  1.000e-004 	             	
        45.361	             	 -4.000e-004 	
        45.377	  9.000e-005 	             	
        45.425	             	 -3.000e-004 	
        45.441	  8.000e-005 	             	
        45.489	             	 -3.000e-004 	
        45.536	  8.000e-005 	             	
        45.553	             	 -3.000e-004 	
        45.600	  8.000e-005 	             	
        45.616	             	 -3.000e-004 	
        45.664	  7.000e-005 	             	
        45.681	             	 -3.000e-004 	
        45.728	  6.000e-005 	             	
        45.744	             	 -3.000e-004 	
        45.792	  6.000e-005 	             	
        45.808	             	 -3.000e-004 	
        45.856	  6.000e-005 	             	
        45.872	             	 -4.000e-004 	
        45.920	  6.000e-005 	             	
        45.936	             	 -4.000e-004 	
        45.984	  6.000e-005 	             	
        46.001	             	 -4.000e-004 	
        46.048	  5.000e-005 	             	
        46.096	             	 -4.000e-004 	
        46.113	  5.000e-005 	             	
        46.160	             	 -4.000e-004 	
        46.176	  5.000e-005 	             	
        46.224	             	 -4.000e-004 	
        46.241	  5.000e-005 	             	
        46.288	             	 -4.000e-004 	
        46.337	  5.000e-005 	             	
        46.352	             	 -4.000e-004 	
        46.400	  5.000e-005 	             	
        46.416	             	 -4.000e-004 	
        46.464	  6.000e-005 	             	
        46.480	             	 -4.000e-004 	
        46.528	  6.000e-005 	             	
        46.544	             	 -4.000e-004 	
        46.592	  6.000e-005 	             	
        46.608	             	 -4.000e-004 	
        46.656	  6.000e-005 	             	
        46.672	             	 -4.000e-004 	
        46.720	  7.000e-005 	             	
        46.736	             	 -4.000e-004 	
        46.785	  7.000e-005 	             	
        46.800	             	 -4.000e-004 	
        46.848	  7.000e-005 	             	
        46.896	             	 -4.000e-004 	
        46.912	  8.000e-005 	             	
        46.960	             	 -3.000e-004 	
        46.976	  8.000e-005 	             	
        47.024	             	 -3.000e-004 	
        47.040	  8.000e-005 	             	
        47.088	             	 -3.000e-004 	
        47.136	  8.000e-005 	             	
        47.152	             	 -4.000e-004 	
        47.200	  8.000e-005 	             	
        47.216	             	 -4.000e-004 	
        47.264	  8.000e-005 	             	
        47.280	             	 -4.000e-004 	
        47.328	  9.000e-005 	             	
        47.344	             	 -4.000e-004 	
        47.392	  9.000e-005 	             	
        47.408	             	 -4.000e-004 	
        47.456	  9.000e-005 	             	
        47.472	             	 -4.000e-004 	
        47.520	  9.000e-005 	             	
        47.536	             	 -4.000e-004 	
        47.584	  9.000e-005 	             	
        47.600	             	 -5.000e-004 	
        47.648	  9.000e-005 	             	
        47.696	             	 -5.000e-004 	
        47.712	  9.000e-005 	             	
        47.761	             	 -5.000e-004 	
        47.776	  9.000e-005 	             	
        47.824	             	 -4.000e-004 	
        47.840	  9.000e-005 	             	
        47.888	             	 -4.000e-004 	
        47.936	  9.000e-005 	             	
        47.952	             	 -4.000e-004 	
        48.000	  9.000e-005 	             	
        48.016	             	 -4.000e-004 	
        48.064	  9.000e-005 	             	
        48.080	             	 -4.000e-004 	
        48.128	  9.000e-005 	             	
        48.144	             	 -5.000e-004 	
        48.192	  9.000e-005 	             	
        48.208	             	 -5.000e-004 	
        48.256	  9.000e-005 	             	
        48.272	             	 -4.000e-004 	
        48.320	  9.000e-005 	             	
        48.336	             	 -4.000e-004 	
        48.384	  9.000e-005 	             	
        48.400	             	 -4.000e-004 	
        48.448	  9.000e-005 	             	
        48.496	             	 -4.000e-004 	
        48.512	  9.000e-005 	             	
        48.560	             	 -3.000e-004 	
        48.576	  9.000e-005 	             	
        48.624	             	 -3.000e-004 	
        48.640	  9.000e-005 	             	
        48.688	             	 -3.000e-004 	
        48.736	  9.000e-005 	             	
        48.752	             	 -3.000e-004 	
        48.800	  9.000e-005 	             	
        48.816	             	 -4.000e-004 	
        48.864	  9.000e-005 	             	
        48.880	             	 -5.000e-004 	
        48.928	  9.000e-005 	             	
        48.944	             	 -6.000e-004 	
        48.992	  9.000e-005 	             	
        49.008	             	 -6.000e-004 	
        49.056	  9.000e-005 	             	
        49.072	             	 -5.000e-004 	
        49.120	  9.000e-005 	             	
        49.136	             	 -5.000e-004 	
        49.184	  9.000e-005 	             	
        49.200	             	 -5.000e-004 	
        49.248	  9.000e-005 	             	
        49.264	             	 -5.000e-004 	
        49.312	  9.000e-005 	             	
        49.360	             	 -4.000e-004 	
        49.376	  1.000e-004 	             	
        49.424	             	 -4.000e-004 	
        49.440	  1.000e-004 	             	
        49.488	             	 -3.000e-004 	
        49.536	  1.000e-004 	             	
        49.552	             	 -3.000e-004 	
        49.600	  1.000e-004 	             	
        49.616	             	 -3.000e-004 	
        49.664	  1.000e-004 	             	
        49.680	             	 -3.000e-004 	
        49.728	  1.000e-004 	             	
        49.744	             	 -4.000e-004 	
        49.792	  1.000e-004 	             	
        49.808	             	 -4.000e-004 	
        49.856	  1.000e-004 	             	
        49.872	             	 -4.000e-004 	
        49.920	  1.000e-004 	             	
        49.936	             	 -3.000e-004 	
        49.984	  1.000e-004 	             	
        50.000	             	 -4.000e-004 	
        50.048	  1.000e-004 	             	
        50.064	             	 -4.000e-004 	
        50.112	  1.000e-004 	             	
        50.160	             	 -4.000e-004 	
        50.176	  1.000e-004 	             	
        50.224	             	 -4.000e-004 	
        50.240	  1.000e-004 	             	
        50.288	             	 -4.000e-004 	
        50.336	  1.000e-004 	             	
        50.352	             	 -4.000e-004 	
        50.400	  1.000e-004 	             	
        50.416	             	 -4.000e-004 	
        50.464	  1.000e-004 	             	
        50.480	             	 -4.000e-004 	
        50.528	  1.000e-004 	             	
        50.544	             	 -4.000e-004 	
        50.592	  1.000e-004 	             	
        50.608	             	 -4.000e-004 	
        50.656	  1.000e-004 	             	
        50.672	             	 -4.000e-004 	
        50.720	  1.000e-004 	             	
        50.736	             	 -4.000e-004 	
        50.784	  1.000e-004 	             	
        50.800	             	 -3.000e-004 	
        50.848	  1.000e-004 	             	
        50.864	             	 -3.000e-004 	
        50.912	  1.000e-004 	             	
        50.960	             	 -3.000e-004 	
        50.976	  1.000e-004 	             	
        51.024	             	 -3.000e-004 	
        51.040	  1.000e-004 	             	
        51.088	             	 -3.000e-004 	
        51.136	  1.000e-004 	             	
        51.152	             	 -3.000e-004 	
        51.200	  1.000e-004 	             	
        51.216	             	 -3.000e-004 	
        51.264	  1.000e-004 	             	
        51.280	             	 -3.000e-004 	
        51.328	  1.000e-004 	             	
        51.344	             	 -4.000e-004 	
        51.392	  1.000e-004 	             	
        51.408	             	 -4.000e-004 	
        51.456	  1.000e-004 	             	
        51.472	             	 -4.000e-004 	
        51.520	  1.000e-004 	             	
        51.536	             	 -4.000e-004 	
        51.584	  1.000e-004 	             	
        51.600	             	 -4.000e-004 	
        51.648	  1.000e-004 	             	
        51.664	             	 -4.000e-004 	
        51.712	  1.000e-004 	             	
        51.760	             	 -4.000e-004 	
        51.776	  1.000e-004 	             	
        51.824	             	 -4.000e-004 	
        51.840	  1.000e-004 	             	
        51.888	             	 -4.000e-004 	
        51.904	  1.000e-004 	             	
        51.952	             	 -4.000e-004 	
        52.000	  1.000e-004 	             	
        52.016	             	 -4.000e-004 	
        52.064	  1.000e-004 	             	
        52.081	             	 -4.000e-004 	
        52.128	  1.000e-004 	             	
        52.144	             	 -4.000e-004 	
        52.192	  1.000e-004 	             	
        52.208	             	 -3.000e-004 	
        52.256	  1.000e-004 	             	
        52.272	             	 -2.000e-004 	
        52.320	  1.000e-004 	             	
        52.336	             	 -2.000e-004 	
        52.384	  1.000e-004 	             	
        52.400	             	 -2.000e-004 	
        52.448	  1.000e-004 	             	
        52.464	             	 -2.000e-004 	
        52.512	  1.000e-004 	             	
        52.560	             	 -2.000e-004 	
        52.576	  1.000e-004 	             	
        52.624	             	 -2.000e-004 	
        52.640	  1.000e-004 	             	
        52.688	             	 -1.000e-004 	
        52.704	  1.000e-004 	             	
        52.752	             	 -1.000e-004 	
        52.800	  1.000e-004 	             	
        52.816	             	 -2.000e-004 	
        52.864	  1.000e-004 	             	
        52.880	             	 -2.000e-004 	
        52.928	  1.000e-004 	             	
        52.944	             	 -2.000e-004 	
        52.992	  1.000e-004 	             	
        53.008	             	 -2.000e-004 	
        53.056	  1.000e-004 	             	
        53.072	             	 -2.000e-004 	
        53.120	  1.000e-004 	             	
        53.136	             	 -2.000e-004 	
        53.184	  1.000e-004 	             	
        53.200	             	 -2.000e-004 	
        53.248	  1.000e-004 	             	
        53.264	             	 -2.000e-004 	
        53.312	  1.000e-004 	             	
        53.360	             	 -3.000e-004 	
        53.376	  1.000e-004 	             	
        53.424	             	 -3.000e-004 	
        53.440	  1.000e-004 	             	
        53.488	             	 -3.000e-004 	
        53.504	  1.000e-004 	             	
        53.552	             	 -3.000e-004 	
        53.600	  1.000e-004 	             	
        53.616	             	 -3.000e-004 	
        53.664	  1.000e-004 	             	
        53.680	             	 -3.000e-004 	
        53.728	  1.000e-004 	             	
        53.744	             	 -2.000e-004 	
        53.792	  1.000e-004 	             	
        53.808	             	 -2.000e-004 	
        53.856	  1.000e-004 	             	
        53.872	             	 -2.000e-004 	
        53.920	  1.000e-004 	             	
        53.936	             	 -2.000e-004 	
        53.984	  1.000e-004 	             	
        54.000	             	 -1.000e-004 	
        54.048	  1.000e-004 	             	
        54.064	             	 -2.000e-004 	
        54.112	  1.000e-004 	             	
        54.160	             	 -2.000e-004 	
        54.176	  1.000e-004 	             	
        54.224	             	 -3.000e-004 	
        54.240	  1.000e-004 	             	
        54.288	             	 -3.000e-004 	
        54.304	  1.000e-004 	             	
        54.352	             	 -4.000e-004 	
        54.400	  1.000e-004 	             	
        54.416	             	 -5.000e-004 	
        54.464	  1.000e-004 	             	
        54.480	             	 -5.000e-004 	
        54.528	  1.000e-004 	             	
        54.544	             	 -4.000e-004 	
        54.592	  1.000e-004 	             	
        54.608	             	 -4.000e-004 	
        54.656	  1.000e-004 	             	
        54.672	             	 -4.000e-004 	
        54.720	  1.000e-004 	             	
        54.736	             	 -4.000e-004 	
        54.784	  1.000e-004 	             	
        54.800	             	 -4.000e-004 	
        54.848	  1.000e-004 	             	
        54.864	             	 -4.000e-004 	
        54.912	  1.000e-004 	             	
        54.960	             	 -4.000e-004 	
        54.976	  1.000e-004 	             	
        55.024	             	 -4.000e-004 	
        55.040	  1.000e-004 	             	
        55.088	             	 -3.000e-004 	
        55.104	  1.000e-004 	             	
        55.152	             	 -3.000e-004 	
        55.200	  1.000e-004 	             	
        55.216	             	 -3.000e-004 	
        55.264	  1.000e-004 	             	
        55.280	             	 -4.000e-004 	
        55.328	  1.000e-004 	             	
        55.344	             	 -5.000e-004 	
        55.392	  1.000e-004 	             	
        55.408	             	 -5.000e-004 	
        55.456	  1.000e-004 	             	
        55.472	             	 -4.000e-004 	
        55.520	  1.000e-004 	             	
        55.536	             	 -4.000e-004 	
        55.584	  1.000e-004 	             	
        55.600	             	 -3.000e-004 	
        55.648	  1.000e-004 	             	
        55.664	             	 -3.000e-004 	
        55.712	  1.000e-004 	             	
        55.760	             	 -3.000e-004 	
        55.776	  1.000e-004 	             	
        55.824	             	 -3.000e-004 	
        55.840	  1.000e-004 	             	
        55.888	             	 -4.000e-004 	
        55.904	  1.000e-004 	             	
        55.952	             	 -4.000e-004 	
        56.000	  1.000e-004 	             	
        56.016	             	 -4.000e-004 	
        56.064	  1.000e-004 	             	
        56.080	             	 -5.000e-004 	
        56.128	  1.000e-004 	             	
        56.144	             	 -4.000e-004 	
        56.192	  1.000e-004 	             	
        56.208	             	 -4.000e-004 	
        56.256	  1.000e-004 	             	
        56.272	             	 -4.000e-004 	
        56.320	  1.000e-004 	             	
        56.336	             	 -4.000e-004 	
        56.384	  1.000e-004 	             	
        56.400	             	 -4.000e-004 	
        56.448	  1.000e-004 	             	
        56.464	             	 -4.000e-004 	
        56.512	  1.000e-004 	             	
        56.560	             	 -4.000e-004 	
        56.576	  1.000e-004 	             	
        56.624	             	 -4.000e-004 	
        56.640	  1.000e-004 	             	
        56.688	             	 -4.000e-004 	
        56.704	  1.000e-004 	             	
        56.752	             	 -4.000e-004 	
        56.800	  1.000e-004 	             	
        56.816	             	 -5.000e-004 	
        56.864	  1.000e-004 	             	
        56.880	             	 -5.000e-004 	
        56.928	  1.000e-004 	             	
        56.944	             	 -5.000e-004 	
        56.992	  1.000e-004 	             	
        57.008	             	 -5.000e-004 	
        57.056	  1.000e-004 	             	
        57.072	             	 -4.000e-004 	
        57.120	  1.000e-004 	             	
        57.136	             	 -4.000e-004 	
        57.184	  1.000e-004 	             	
        57.200	             	 -4.000e-004 	
        57.248	  1.000e-004 	             	
        57.264	             	 -4.000e-004 	
        57.312	  1.000e-004 	             	
        57.360	             	 -3.000e-004 	
        57.376	  1.000e-004 	             	
        57.424	             	 -3.000e-004 	
        57.440	  1.000e-004 	             	
        57.488	             	 -3.000e-004 	
        57.504	  1.000e-004 	             	
        57.552	             	 -3.000e-004 	
        57.600	  1.000e-004 	             	
        57.616	             	 -4.000e-004 	
        57.664	  1.000e-004 	             	
        57.680	             	 -4.000e-004 	
        57.728	  1.000e-004 	             	
        57.744	             	 -4.000e-004 	
        57.792	  1.000e-004 	             	
        57.808	             	 -4.000e-004 	
        57.856	  1.000e-004 	             	
        57.872	             	 -4.000e-004 	
        57.920	  1.000e-004 	             	
        57.936	             	 -5.000e-004 	
        57.984	  1.000e-004 	             	
        58.000	             	 -4.000e-004 	
        58.048	  1.000e-004 	             	
        58.064	             	 -3.000e-004 	
        58.112	  1.000e-004 	             	
        58.160	             	 -3.000e-004 	
        58.176	  1.000e-004 	             	
        58.224	             	 -3.000e-004 	
        58.240	  1.000e-004 	             	
        58.288	             	 -3.000e-004 	
        58.304	  1.000e-004 	             	
        58.352	             	 -4.000e-004 	
        58.400	  1.000e-004 	             	
        58.416	             	 -3.000e-004 	
        58.464	  1.000e-004 	             	
        58.480	             	 -4.000e-004 	
        58.528	  1.000e-004 	             	
        58.544	             	 -4.000e-004 	
        58.592	  1.000e-004 	             	
        58.608	             	 -4.000e-004 	
        58.656	  1.000e-004 	             	
        58.672	             	 -4.000e-004 	
        58.720	  1.000e-004 	             	
        58.736	             	 -4.000e-004 	
        58.784	  1.000e-004 	             	
        58.800	             	 -5.000e-004 	
        58.848	  1.000e-004 	             	
        58.864	             	 -4.000e-004 	
        58.912	  1.000e-004 	             	
        58.960	             	 -4.000e-004 	
        58.976	  1.000e-004 	             	
        59.024	             	 -4.000e-004 	
        59.040	  1.000e-004 	             	
        59.088	             	 -4.000e-004 	
        59.104	  1.000e-004 	             	
        59.152	             	 -5.000e-004 	
        59.200	  1.000e-004 	             	
        59.216	             	 -4.000e-004 	
        59.264	  1.000e-004 	             	
        59.280	             	 -4.000e-004 	
        59.328	  1.000e-004 	             	
        59.344	             	 -3.000e-004 	
        59.392	  1.000e-004 	             	
        59.408	             	 -3.000e-004 	
        59.456	  1.000e-004 	             	
        59.472	             	 -4.000e-004 	
        59.520	  1.000e-004 	             	
        59.536	             	 -4.000e-004 	
        59.584	  1.000e-004 	             	
        59.600	             	 -4.000e-004 	
        59.648	  1.000e-004 	             	
        59.664	             	 -4.000e-004 	
        59.712	  1.000e-004 	             	
        59.760	             	 -3.000e-004 	
        59.776	  1.000e-004 	             	
        59.824	             	 -4.000e-004 	
        59.840	  1.000e-004 	             	
        59.888	             	 -4.000e-004 	
        59.904	  1.000e-004 	             	
        59.952	             	 -4.000e-004 	
        60.000	  1.000e-004 	             	
        60.016	             	 -4.000e-004 	
        60.064	  1.000e-004 	             	
        60.080	             	 -3.000e-004 	
        60.128	  1.000e-004 	             	
        60.144	             	 -4.000e-004 	
        60.192	  1.000e-004 	             	
        60.208	             	 -4.000e-004 	
        60.256	  1.000e-004 	             	
        60.272	             	 -4.000e-004 	
        60.320	  1.000e-004 	             	
        60.336	             	 -5.000e-004 	
        60.384	  1.000e-004 	             	
        60.400	             	 -5.000e-004 	
        60.448	  1.000e-004 	             	
        60.464	             	 -5.000e-004 	
        60.512	  1.000e-004 	             	
        60.560	             	 -5.000e-004 	
        60.576	  1.000e-004 	             	
        60.624	             	 -5.000e-004 	
        60.640	  1.000e-004 	             	
        60.688	             	 -5.000e-004 	
        60.704	  1.000e-004 	             	
        60.752	             	 -4.000e-004 	
        60.800	  1.000e-004 	             	
        60.816	             	 -4.000e-004 	
        60.864	  1.000e-004 	             	
        60.880	             	 -4.000e-004 	
        60.928	  1.000e-004 	             	
        60.944	             	 -4.000e-004 	
        60.992	  1.000e-004 	             	
        61.008	             	 -4.000e-004 	
        61.056	  1.000e-004 	             	
        61.072	             	 -4.000e-004 	
        61.120	  1.000e-004 	             	
        61.136	             	 -5.000e-004 	
        61.184	  1.000e-004 	             	
        61.200	             	 -5.000e-004 	
        61.248	  1.000e-004 	             	
        61.264	             	 -6.000e-004 	
        61.312	  1.000e-004 	             	
        61.360	             	 -6.000e-004 	
        61.376	  1.000e-004 	             	
        61.424	             	 -6.000e-004 	
        61.440	  1.000e-004 	             	
        61.488	             	 -5.000e-004 	
        61.504	  1.000e-004 	             	
        61.551	             	 -5.000e-004 	
        61.600	  1.000e-004 	             	
        61.616	             	 -5.000e-004 	
        61.664	  1.000e-004 	             	
        61.680	             	 -5.000e-004 	
        61.728	  1.000e-004 	             	
        61.744	             	 -5.000e-004 	
        61.792	  1.000e-004 	             	
        61.808	             	 -5.000e-004 	
        61.856	  1.000e-004 	             	
        61.872	             	 -5.000e-004 	
        61.920	  1.000e-004 	             	
        61.936	             	 -6.000e-004 	
        61.984	  1.000e-004 	             	
        62.000	             	 -6.000e-004 	
        62.048	  1.000e-004 	             	
        62.064	             	 -6.000e-004 	
        62.112	  1.000e-004 	             	
        62.160	             	 -5.000e-004 	
        62.176	  1.000e-004 	             	
        62.223	             	 -5.000e-004 	
        62.240	  1.000e-004 	             	
        62.288	             	 -5.000e-004 	
        62.304	  1.000e-004 	             	
        62.352	             	 -5.000e-004 	
        62.401	  1.000e-004 	             	
        62.417	             	 -5.000e-004 	
        62.465	  1.000e-004 	             	
        62.480	             	 -5.000e-004 	
        62.529	  1.000e-004 	             	
        62.545	             	 -5.000e-004 	
        62.593	  1.000e-004 	             	
        62.609	             	 -4.000e-004 	
        62.656	  1.000e-004 	             	
        62.672	             	 -4.000e-004 	
        62.721	  1.000e-004 	             	
        62.737	             	 -3.000e-004 	
        62.784	  1.000e-004 	             	
        62.801	             	 -3.000e-004 	
        62.848	  1.000e-004 	             	
        62.865	             	 -4.000e-004 	
        62.912	  1.000e-004 	             	
        62.929	             	 -5.000e-004 	
        62.976	  1.000e-004 	             	
        63.024	             	 -6.000e-004 	
        63.040	  1.000e-004 	             	
        63.088	             	 -6.000e-004 	
        63.104	  1.000e-004 	             	
        63.153	             	 -6.000e-004 	
        63.200	  1.000e-004 	             	
        63.216	             	 -5.000e-004 	
        63.265	  1.000e-004 	             	
        63.280	             	 -5.000e-004 	
        63.328	  1.000e-004 	             	
        63.345	             	 -4.000e-004 	
        63.393	  1.000e-004 	             	
        63.408	             	 -5.000e-004 	
        63.456	  1.000e-004 	             	
        63.472	             	 -5.000e-004 	
        63.520	  1.000e-004 	             	
        63.536	             	 -5.000e-004 	
        63.584	  1.000e-004 	             	
        63.600	             	 -6.000e-004 	
        63.648	  1.000e-004 	             	
        63.664	             	 -6.000e-004 	
        63.712	  1.000e-004 	             	
        63.728	             	 -7.000e-004 	
        63.776	  1.000e-004 	             	
        63.824	             	 -6.000e-004 	
        63.840	  1.000e-004 	             	
        63.889	             	 -6.000e-004 	
        63.904	  1.000e-004 	             	
        63.952	             	 -6.000e-004 	
        64.000	  1.000e-004 	             	
        64.017	             	 -6.000e-004 	
        64.064	  1.000e-004 	             	
        64.080	             	 -6.000e-004 	
        64.128	  1.000e-004 	             	
        64.144	             	 -6.000e-004 	
        64.192	  1.000e-004 	             	
        64.208	             	 -5.000e-004 	
        64.256	  1.000e-004 	             	
        64.272	             	 -5.000e-004 	
        64.320	  1.000e-004 	             	
        64.336	             	 -5.000e-004 	
        64.384	  1.000e-004 	             	
        64.400	             	 -5.000e-004 	
        64.448	  1.000e-004 	             	
        64.464	             	 -6.000e-004 	
        64.512	  1.000e-004 	             	
        64.560	             	 -6.000e-004 	
        64.576	  1.000e-004 	             	
        64.624	             	 -6.000e-004 	
        64.640	  1.000e-004 	             	
        64.688	             	 -5.000e-004 	
        64.704	  1.000e-004 	             	
        64.752	             	 -5.000e-004 	
        64.769	  1.000e-004 	             	
        64.816	             	 -5.000e-004 	
        64.865	  1.000e-004 	             	
        64.880	             	 -5.000e-004 	
        64.928	  1.000e-004 	             	
        64.944	             	 -4.000e-004 	
        64.992	  1.000e-004 	             	
        65.008	             	 -4.000e-004 	
        65.056	  1.000e-004 	             	
        65.072	             	 -4.000e-004 	
        65.120	  1.000e-004 	             	
        65.136	             	 -5.000e-004 	
        65.184	  1.000e-004 	             	
        65.200	             	 -5.000e-004 	
        65.248	  1.000e-004 	             	
        65.264	             	 -5.000e-004 	
        65.312	  1.000e-004 	             	
        65.328	             	 -5.000e-004 	
        65.376	  1.000e-004 	             	
        65.424	             	 -6.000e-004 	
        65.440	  1.000e-004 	             	
        65.488	             	 -6.000e-004 	
        65.504	  1.000e-004 	             	
        65.552	             	 -6.000e-004 	
        65.568	  1.000e-004 	             	
        65.616	             	 -6.000e-004 	
        65.664	  1.000e-004 	             	
        65.680	             	 -6.000e-004 	
        65.728	  1.000e-004 	             	
        65.744	             	 -6.000e-004 	
        65.792	  1.000e-004 	             	
        65.808	             	 -6.000e-004 	
        65.856	  1.000e-004 	             	
        65.872	             	 -5.000e-004 	
        65.920	  1.000e-004 	             	
        65.936	             	 -5.000e-004 	
        65.984	  1.000e-004 	             	
        66.000	             	 -5.000e-004 	
        66.048	  1.000e-004 	             	
        66.064	             	 -5.000e-004 	
        66.112	  1.000e-004 	             	
        66.128	             	 -4.000e-004 	
        66.176	  1.000e-004 	             	
        66.224	             	 -4.000e-004 	
        66.240	  1.000e-004 	             	
        66.289	             	 -4.000e-004 	
        66.304	  1.000e-004 	             	
        66.352	             	 -5.000e-004 	
        66.368	  1.000e-004 	             	
        66.416	             	 -4.000e-004 	
        66.464	  1.000e-004 	             	
        66.480	             	 -4.000e-004 	
        66.528	  1.000e-004 	             	
        66.544	             	 -4.000e-004 	
        66.592	  1.000e-004 	             	
        66.608	             	 -4.000e-004 	
        66.656	  1.000e-004 	             	
        66.672	             	 -5.000e-004 	
        66.720	  1.000e-004 	             	
        66.736	             	 -5.000e-004 	
        66.784	  1.000e-004 	             	
        66.800	             	 -5.000e-004 	
        66.848	  1.000e-004 	             	
        66.864	             	 -5.000e-004 	
        66.912	  1.000e-004 	             	
        66.928	             	 -5.000e-004 	
        66.976	  1.000e-004 	             	
        67.024	             	 -5.000e-004 	
        67.040	  1.000e-004 	             	
        67.088	             	 -6.000e-004 	
        67.104	  1.000e-004 	             	
        67.152	             	 -5.000e-004 	
        67.168	  1.000e-004 	             	
        67.216	             	 -5.000e-004 	
        67.264	  1.000e-004 	             	
        67.281	             	 -5.000e-004 	
        67.328	  1.000e-004 	             	
        67.344	             	 -4.000e-004 	
        67.392	  1.000e-004 	             	
        67.408	             	 -4.000e-004 	
        67.456	  1.000e-004 	             	
        67.472	             	 -4.000e-004 	
        67.520	  1.000e-004 	             	
        67.536	             	 -5.000e-004 	
        67.584	  1.000e-004 	             	
        67.600	             	 -5.000e-004 	
        67.648	  1.000e-004 	             	
        67.664	             	 -5.000e-004 	
        67.712	  1.000e-004 	             	
        67.728	             	 -5.000e-004 	
        67.776	  1.000e-004 	             	
        67.824	             	 -5.000e-004 	
        67.840	  1.000e-004 	             	
        67.888	             	 -5.000e-004 	
        67.904	  1.000e-004 	             	
        67.952	             	 -6.000e-004 	
        67.968	  1.000e-004 	             	
        68.016	             	 -6.000e-004 	
        68.064	  1.000e-004 	             	
        68.080	             	 -5.000e-004 	
        68.128	  1.000e-004 	             	
        68.144	             	 -5.000e-004 	
        68.192	  1.000e-004 	             	
        68.208	             	 -5.000e-004 	
        68.256	  1.000e-004 	             	
        68.272	             	 -5.000e-004 	
        68.320	  1.000e-004 	             	
        68.336	             	 -5.000e-004 	
        68.384	  1.000e-004 	             	
        68.400	             	 -5.000e-004 	
        68.448	  1.000e-004 	             	
        68.464	             	 -4.000e-004 	
        68.512	  1.000e-004 	             	
        68.528	             	 -4.000e-004 	
        68.576	  1.000e-004 	             	
        68.624	             	 -4.000e-004 	
        68.640	  1.000e-004 	             	
        68.688	             	 -4.000e-004 	
        68.704	  1.000e-004 	             	
        68.752	             	 -4.000e-004 	
        68.768	  1.000e-004 	             	
        68.816	             	 -4.000e-004 	
        68.864	  1.000e-004 	             	
        68.880	             	 -4.000e-004 	
        68.928	  1.000e-004 	             	
        68.944	             	 -4.000e-004 	
        68.992	  1.000e-004 	             	
        69.008	             	 -5.000e-004 	
        69.056	  1.000e-004 	             	
        69.072	             	 -5.000e-004 	
        69.120	  1.000e-004 	             	
        69.136	             	 -4.000e-004 	
        69.184	  1.000e-004 	             	
        69.200	             	 -4.000e-004 	
        69.248	  1.000e-004 	             	
        69.264	             	 -4.000e-004 	
        69.312	  1.000e-004 	             	
        69.328	             	 -4.000e-004 	
        69.376	  1.000e-004 	             	
        69.424	             	 -4.000e-004 	
        69.440	  1.000e-004 	             	
        69.488	             	 -5.000e-004 	
        69.504	  1.000e-004 	             	
        69.552	             	 -5.000e-004 	
        69.568	  1.000e-004 	             	
        69.616	             	 -6.000e-004 	
        69.664	  1.000e-004 	             	
        69.680	             	 -6.000e-004 	
        69.728	  1.000e-004 	             	
        69.744	             	 -6.000e-004 	
        69.793	  1.000e-004 	             	
        69.808	             	 -6.000e-004 	
        69.856	  1.000e-004 	             	
        69.872	             	 -5.000e-004 	
        69.920	  1.000e-004 	             	
        69.936	             	 -4.000e-004 	
        69.984	  1.000e-004 	             	
        70.000	             	 -4.000e-004 	
        70.048	  1.000e-004 	             	
        70.064	             	 -4.000e-004 	
        70.112	  1.000e-004 	             	
        70.128	             	 -4.000e-004 	
        70.176	  1.000e-004 	             	
        70.224	             	 -3.000e-004 	
        70.240	  1.000e-004 	             	
        70.288	             	 -3.000e-004 	
        70.304	  1.000e-004 	             	
        70.352	             	 -3.000e-004 	
        70.368	  1.000e-004 	             	
        70.416	             	 -4.000e-004 	
        70.464	  1.000e-004 	             	
        70.480	             	 -5.000e-004 	
        70.528	  1.000e-004 	             	
        70.544	             	 -5.000e-004 	
        70.592	  1.000e-004 	             	
        70.608	             	 -6.000e-004 	
        70.656	  1.000e-004 	             	
        70.672	             	 -6.000e-004 	
        70.720	  1.000e-004 	             	
        70.736	             	 -6.000e-004 	
        70.784	  1.000e-004 	             	
        70.800	             	 -6.000e-004 	
        70.848	  1.000e-004 	             	
        70.864	             	 -6.000e-004 	
        70.912	  1.000e-004 	             	
        70.928	             	 -6.000e-004 	
        70.976	  1.000e-004 	             	
        71.024	             	 -5.000e-004 	
        71.040	  1.000e-004 	             	
        71.088	             	 -5.000e-004 	
        71.104	  1.000e-004 	             	
        71.152	             	 -5.000e-004 	
        71.168	  1.000e-004 	             	
        71.216	             	 -5.000e-004 	
        71.264	  1.000e-004 	             	
        71.280	             	 -5.000e-004 	
        71.328	  1.000e-004 	             	
        71.344	             	 -5.000e-004 	
        71.392	  1.000e-004 	             	
        71.408	             	 -5.000e-004 	
        71.456	  1.000e-004 	             	
        71.472	             	 -5.000e-004 	
        71.520	  1.000e-004 	             	
        71.536	             	 -5.000e-004 	
        71.584	  1.000e-004 	             	
        71.600	             	 -5.000e-004 	
        71.648	  1.000e-004 	             	
        71.664	             	 -6.000e-004 	
        71.712	  1.000e-004 	             	
        71.728	             	 -6.000e-004 	
        71.776	  1.000e-004 	             	
        71.824	             	 -6.000e-004 	
        71.840	  1.000e-004 	             	
        71.888	             	 -6.000e-004 	
        71.904	  1.000e-004 	             	
        71.952	             	 -5.000e-004 	
        71.968	  1.000e-004 	             	
        72.016	             	 -5.000e-004 	
        72.064	  1.000e-004 	             	
        72.080	             	 -5.000e-004 	
        72.128	  1.000e-004 	             	
        72.144	             	 -5.000e-004 	
        72.192	  1.000e-004 	             	
        72.208	             	 -5.000e-004 	
        72.256	  1.000e-004 	             	
        72.272	             	 -4.000e-004 	
        72.320	  1.000e-004 	             	
        72.336	             	 -4.000e-004 	
        72.384	  1.000e-004 	             	
        72.400	             	 -4.000e-004 	
        72.448	  1.000e-004 	             	
        72.464	             	 -4.000e-004 	
        72.512	  1.000e-004 	             	
