;PC Software:StarLab Version 2.10 Build 25
;Logged:20/09/2022 at 16:34:59
;File Version:3
;Graph Type:Line
;Notes:                                                            

;Channel A:Nova II Photodiode PD300-3W-v1 (s/n:763106)  NN2.52 (s/n:767396)
;Channel B:Vega Thermopile 10A-V1.1 (s/n:693380)  VG2.44 (s/n:858327)

;Channel A:Details
;Name:PD300-3W-v1
;Graph Color:RGB(0,102,255)
;Units:W
;Settings:Measuring:Power
;Settings:Wavelength:1064
;Settings:Range:AUTO
;Settings:Filter:IN

;Channel B:Details
;Name:10A-V1.1
;Graph Color:RGB(154,0,0)
;Units:W
;Settings:Measuring:Power
;Settings:Laser:.8-6
;Settings:Range:AUTO
;--------------------


;First Pulse Arrived : 20/09/2022 at 16:35:00.153000
  Timestamp   	  Channel A  	  Channel B  	
         0.000	  4.530e-003 	             	
         0.002	             	  5.100e-001 	
         0.064	  4.520e-003 	             	
         0.066	             	  5.100e-001 	
         0.128	  4.530e-003 	             	
         0.130	             	  5.100e-001 	
         0.192	  4.530e-003 	             	
         0.194	             	  5.100e-001 	
         0.256	  4.540e-003 	             	
         0.258	             	  5.100e-001 	
         0.320	  4.530e-003 	             	
         0.322	             	  5.100e-001 	
         0.383	  4.540e-003 	             	
         0.386	             	  5.100e-001 	
         0.447	  4.540e-003 	             	
         0.450	             	  5.100e-001 	
         0.511	  4.520e-003 	             	
         0.514	             	  5.100e-001 	
         0.576	  4.520e-003 	             	
         0.578	             	  5.100e-001 	
         0.640	  4.530e-003 	             	
         0.674	             	  5.100e-001 	
         0.736	  4.550e-003 	             	
         0.738	             	  5.100e-001 	
         0.800	  4.530e-003 	             	
         0.802	             	  5.100e-001 	
         0.863	  4.520e-003 	             	
         0.866	             	  5.100e-001 	
         0.927	  4.510e-003 	             	
         0.930	             	  5.100e-001 	
         0.991	  4.530e-003 	             	
         0.994	             	  5.100e-001 	
         1.056	  4.550e-003 	             	
         1.058	             	  5.100e-001 	
         1.119	  4.520e-003 	             	
         1.122	             	  5.100e-001 	
         1.183	  4.540e-003 	             	
         1.186	             	  5.100e-001 	
         1.247	  4.550e-003 	             	
         1.250	             	  5.100e-001 	
         1.311	  4.550e-003 	             	
         1.314	             	  5.100e-001 	
         1.375	  4.530e-003 	             	
         1.378	             	  5.100e-001 	
         1.439	  4.540e-003 	             	
         1.474	             	  5.100e-001 	
         1.535	  4.520e-003 	             	
         1.538	             	  5.100e-001 	
         1.599	  4.530e-003 	             	
         1.602	             	  5.100e-001 	
         1.663	  4.530e-003 	             	
         1.666	             	  5.100e-001 	
         1.727	  4.550e-003 	             	
         1.730	             	  5.100e-001 	
         1.791	  4.530e-003 	             	
         1.794	             	  5.100e-001 	
         1.855	  4.510e-003 	             	
         1.858	             	  5.100e-001 	
         1.919	  4.530e-003 	             	
         1.922	             	  5.100e-001 	
         1.983	  4.510e-003 	             	
         1.986	             	  5.100e-001 	
         2.047	  4.540e-003 	             	
         2.050	             	  5.100e-001 	
         2.111	  4.510e-003 	             	
         2.114	             	  5.100e-001 	
         2.175	  4.520e-003 	             	
         2.178	             	  5.100e-001 	
         2.239	  4.520e-003 	             	
         2.274	             	  5.100e-001 	
         2.335	  4.520e-003 	             	
         2.338	             	  5.100e-001 	
         2.399	  4.530e-003 	             	
         2.402	             	  5.100e-001 	
         2.463	  4.530e-003 	             	
         2.466	             	  5.100e-001 	
         2.527	  4.530e-003 	             	
         2.530	             	  5.100e-001 	
         2.591	  4.540e-003 	             	
         2.594	             	  5.100e-001 	
         2.655	  4.520e-003 	             	
         2.658	             	  5.100e-001 	
         2.719	  4.520e-003 	             	
         2.722	             	  5.110e-001 	
         2.783	  4.520e-003 	             	
         2.786	             	  5.110e-001 	
         2.847	  4.520e-003 	             	
         2.850	             	  5.110e-001 	
         2.911	  4.500e-003 	             	
         2.914	             	  5.110e-001 	
         2.975	  4.530e-003 	             	
         2.978	             	  5.110e-001 	
         3.039	  4.500e-003 	             	
         3.074	             	  5.110e-001 	
         3.103	  4.490e-003 	             	
         3.138	             	  5.110e-001 	
         3.199	  4.480e-003 	             	
         3.202	             	  5.100e-001 	
         3.263	  4.490e-003 	             	
         3.266	             	  5.100e-001 	
         3.327	  4.490e-003 	             	
         3.330	             	  5.100e-001 	
         3.391	  4.500e-003 	             	
         3.394	             	  5.100e-001 	
         3.455	  4.490e-003 	             	
         3.458	             	  5.100e-001 	
         3.519	  4.480e-003 	             	
         3.522	             	  5.100e-001 	
         3.583	  4.480e-003 	             	
         3.586	             	  5.100e-001 	
         3.647	  4.480e-003 	             	
         3.650	             	  5.100e-001 	
         3.711	  4.490e-003 	             	
         3.714	             	  5.100e-001 	
         3.775	  4.470e-003 	             	
         3.778	             	  5.100e-001 	
         3.839	  4.500e-003 	             	
         3.874	             	  5.100e-001 	
         3.903	  4.490e-003 	             	
         3.938	             	  5.100e-001 	
         3.999	  4.490e-003 	             	
         4.002	             	  5.100e-001 	
         4.063	  4.480e-003 	             	
         4.066	             	  5.100e-001 	
         4.127	  4.480e-003 	             	
         4.130	             	  5.100e-001 	
         4.191	  4.470e-003 	             	
         4.194	             	  5.100e-001 	
         4.255	  4.490e-003 	             	
         4.258	             	  5.100e-001 	
         4.319	  4.490e-003 	             	
         4.322	             	  5.100e-001 	
         4.383	  4.490e-003 	             	
         4.386	             	  5.100e-001 	
         4.447	  4.500e-003 	             	
         4.450	             	  5.100e-001 	
         4.511	  4.500e-003 	             	
         4.514	             	  5.100e-001 	
         4.575	  4.500e-003 	             	
         4.578	             	  5.100e-001 	
         4.639	  4.490e-003 	             	
         4.674	             	  5.100e-001 	
         4.703	  4.480e-003 	             	
         4.738	             	  5.100e-001 	
         4.799	  4.510e-003 	             	
         4.802	             	  5.100e-001 	
         4.863	  4.490e-003 	             	
         4.866	             	  5.100e-001 	
         4.927	  4.470e-003 	             	
         4.930	             	  5.100e-001 	
         4.991	  4.470e-003 	             	
         4.994	             	  5.100e-001 	
         5.055	  4.500e-003 	             	
         5.058	             	  5.100e-001 	
         5.119	  4.480e-003 	             	
         5.122	             	  5.100e-001 	
         5.183	  4.460e-003 	             	
         5.186	             	  5.100e-001 	
         5.247	  4.450e-003 	             	
         5.250	             	  5.100e-001 	
         5.311	  4.450e-003 	             	
         5.314	             	  5.100e-001 	
         5.375	  4.430e-003 	             	
         5.378	             	  5.100e-001 	
         5.439	  4.440e-003 	             	
         5.474	             	  5.100e-001 	
         5.503	  4.430e-003 	             	
         5.538	             	  5.100e-001 	
         5.599	  4.450e-003 	             	
         5.602	             	  5.100e-001 	
         5.663	  4.440e-003 	             	
         5.666	             	  5.100e-001 	
         5.727	  4.430e-003 	             	
         5.730	             	  5.100e-001 	
         5.791	  4.420e-003 	             	
         5.794	             	  5.100e-001 	
         5.855	  4.430e-003 	             	
         5.858	             	  5.100e-001 	
         5.919	  4.430e-003 	             	
         5.922	             	  5.100e-001 	
         5.983	  4.400e-003 	             	
         5.986	             	  5.100e-001 	
         6.047	  4.400e-003 	             	
         6.050	             	  5.100e-001 	
         6.111	  4.390e-003 	             	
         6.114	             	  5.100e-001 	
         6.175	  4.360e-003 	             	
         6.178	             	  5.100e-001 	
         6.239	  4.390e-003 	             	
         6.274	             	  5.100e-001 	
         6.303	  4.380e-003 	             	
         6.338	             	  5.100e-001 	
         6.399	  4.380e-003 	             	
         6.402	             	  5.100e-001 	
         6.463	  4.350e-003 	             	
         6.466	             	  5.100e-001 	
         6.527	  4.370e-003 	             	
         6.530	             	  5.100e-001 	
         6.591	  4.350e-003 	             	
         6.594	             	  5.100e-001 	
         6.655	  4.340e-003 	             	
         6.658	             	  5.100e-001 	
         6.719	  4.340e-003 	             	
         6.722	             	  5.100e-001 	
         6.783	  4.350e-003 	             	
         6.786	             	  5.100e-001 	
         6.847	  4.350e-003 	             	
         6.850	             	  5.100e-001 	
         6.911	  4.340e-003 	             	
         6.914	             	  5.100e-001 	
         6.975	  4.320e-003 	             	
         6.978	             	  5.100e-001 	
         7.039	  4.340e-003 	             	
         7.074	             	  5.100e-001 	
         7.103	  4.350e-003 	             	
         7.138	             	  5.100e-001 	
         7.199	  4.330e-003 	             	
         7.202	             	  5.100e-001 	
         7.263	  4.340e-003 	             	
         7.266	             	  5.100e-001 	
         7.327	  4.340e-003 	             	
         7.330	             	  5.100e-001 	
         7.391	  4.340e-003 	             	
         7.394	             	  5.100e-001 	
         7.455	  4.330e-003 	             	
         7.458	             	  5.110e-001 	
         7.519	  4.320e-003 	             	
         7.522	             	  5.110e-001 	
         7.583	  4.320e-003 	             	
         7.586	             	  5.110e-001 	
         7.647	  4.330e-003 	             	
         7.650	             	  5.100e-001 	
         7.711	  4.340e-003 	             	
         7.714	             	  5.100e-001 	
         7.775	  4.340e-003 	             	
         7.778	             	  5.100e-001 	
         7.839	  4.320e-003 	             	
         7.874	             	  5.100e-001 	
         7.903	  4.320e-003 	             	
         7.938	             	  5.100e-001 	
         7.999	  4.310e-003 	             	
         8.002	             	  5.100e-001 	
         8.063	  4.330e-003 	             	
         8.066	             	  5.100e-001 	
         8.127	  4.300e-003 	             	
         8.130	             	  5.100e-001 	
         8.191	  4.290e-003 	             	
         8.194	             	  5.100e-001 	
         8.255	  4.290e-003 	             	
         8.258	             	  5.100e-001 	
         8.319	  4.290e-003 	             	
         8.322	             	  5.100e-001 	
         8.383	  4.290e-003 	             	
         8.386	             	  5.100e-001 	
         8.447	  4.290e-003 	             	
         8.450	             	  5.100e-001 	
         8.511	  4.310e-003 	             	
         8.514	             	  5.100e-001 	
         8.575	  4.280e-003 	             	
         8.578	             	  5.100e-001 	
         8.639	  4.300e-003 	             	
         8.674	             	  5.100e-001 	
         8.703	  4.260e-003 	             	
         8.738	             	  5.110e-001 	
         8.799	  4.250e-003 	             	
         8.802	             	  5.110e-001 	
         8.863	  4.280e-003 	             	
         8.866	             	  5.100e-001 	
         8.927	  4.260e-003 	             	
         8.930	             	  5.100e-001 	
         8.991	  4.280e-003 	             	
         8.994	             	  5.100e-001 	
         9.055	  4.270e-003 	             	
         9.058	             	  5.100e-001 	
         9.119	  4.270e-003 	             	
         9.122	             	  5.100e-001 	
         9.183	  4.270e-003 	             	
         9.186	             	  5.100e-001 	
         9.247	  4.280e-003 	             	
         9.250	             	  5.100e-001 	
         9.311	  4.250e-003 	             	
         9.314	             	  5.100e-001 	
         9.375	  4.250e-003 	             	
         9.378	             	  5.100e-001 	
         9.439	  4.280e-003 	             	
         9.474	             	  5.100e-001 	
         9.503	  4.260e-003 	             	
         9.538	             	  5.100e-001 	
         9.599	  4.260e-003 	             	
         9.602	             	  5.100e-001 	
         9.663	  4.270e-003 	             	
         9.666	             	  5.100e-001 	
         9.727	  4.270e-003 	             	
         9.730	             	  5.100e-001 	
         9.791	  4.280e-003 	             	
         9.794	             	  5.110e-001 	
         9.855	  4.290e-003 	             	
         9.858	             	  5.110e-001 	
         9.919	  4.280e-003 	             	
         9.922	             	  5.100e-001 	
         9.983	  4.270e-003 	             	
         9.986	             	  5.100e-001 	
        10.047	  4.250e-003 	             	
        10.050	             	  5.100e-001 	
        10.111	  4.260e-003 	             	
        10.114	             	  5.100e-001 	
        10.175	  4.280e-003 	             	
        10.178	             	  5.100e-001 	
        10.239	  4.270e-003 	             	
        10.274	             	  5.100e-001 	
        10.303	  4.280e-003 	             	
        10.338	             	  5.100e-001 	
        10.399	  4.280e-003 	             	
        10.402	             	  5.100e-001 	
        10.463	  4.260e-003 	             	
        10.466	             	  5.100e-001 	
        10.527	  4.270e-003 	             	
        10.530	             	  5.100e-001 	
        10.591	  4.240e-003 	             	
        10.594	             	  5.100e-001 	
        10.655	  4.260e-003 	             	
        10.658	             	  5.100e-001 	
        10.719	  4.240e-003 	             	
        10.722	             	  5.100e-001 	
        10.783	  4.250e-003 	             	
        10.786	             	  5.100e-001 	
        10.847	  4.240e-003 	             	
        10.850	             	  5.100e-001 	
        10.911	  4.220e-003 	             	
        10.914	             	  5.100e-001 	
        10.975	  4.250e-003 	             	
        10.978	             	  5.100e-001 	
        11.039	  4.250e-003 	             	
        11.074	             	  5.100e-001 	
        11.103	  4.240e-003 	             	
        11.138	             	  5.100e-001 	
        11.199	  4.230e-003 	             	
        11.202	             	  5.100e-001 	
        11.263	  4.220e-003 	             	
        11.266	             	  5.110e-001 	
        11.327	  4.210e-003 	             	
        11.330	             	  5.100e-001 	
        11.391	  4.200e-003 	             	
        11.394	             	  5.100e-001 	
        11.455	  4.200e-003 	             	
        11.458	             	  5.100e-001 	
        11.519	  4.220e-003 	             	
        11.522	             	  5.100e-001 	
        11.583	  4.230e-003 	             	
        11.586	             	  5.100e-001 	
        11.647	  4.210e-003 	             	
        11.650	             	  5.100e-001 	
        11.711	  4.240e-003 	             	
        11.714	             	  5.100e-001 	
        11.775	  4.250e-003 	             	
        11.778	             	  5.100e-001 	
        11.839	  4.240e-003 	             	
        11.874	             	  5.100e-001 	
        11.903	  4.250e-003 	             	
        11.938	             	  5.100e-001 	
        11.999	  4.270e-003 	             	
        12.002	             	  5.100e-001 	
        12.063	  4.270e-003 	             	
        12.066	             	  5.100e-001 	
        12.127	  4.270e-003 	             	
        12.130	             	  5.100e-001 	
        12.191	  4.300e-003 	             	
        12.194	             	  5.100e-001 	
        12.255	  4.300e-003 	             	
        12.258	             	  5.100e-001 	
        12.319	  4.330e-003 	             	
        12.322	             	  5.100e-001 	
        12.383	  4.350e-003 	             	
        12.386	             	  5.100e-001 	
        12.447	  4.290e-003 	             	
        12.450	             	  5.100e-001 	
        12.511	  4.240e-003 	             	
        12.514	             	  5.100e-001 	
        12.575	  4.220e-003 	             	
        12.578	             	  5.100e-001 	
        12.639	  4.210e-003 	             	
        12.674	             	  5.100e-001 	
        12.703	  4.220e-003 	             	
        12.738	             	  5.100e-001 	
        12.799	  4.210e-003 	             	
        12.802	             	  5.100e-001 	
        12.863	  4.210e-003 	             	
        12.866	             	  5.100e-001 	
        12.927	  4.220e-003 	             	
        12.930	             	  5.100e-001 	
        12.991	  4.200e-003 	             	
        12.994	             	  5.100e-001 	
        13.055	  4.190e-003 	             	
        13.058	             	  5.100e-001 	
        13.119	  4.190e-003 	             	
        13.122	             	  5.100e-001 	
        13.183	  4.180e-003 	             	
        13.186	             	  5.110e-001 	
        13.247	  4.190e-003 	             	
        13.250	             	  5.110e-001 	
        13.311	  4.190e-003 	             	
        13.314	             	  5.110e-001 	
        13.375	  4.190e-003 	             	
        13.378	             	  5.110e-001 	
        13.439	  4.180e-003 	             	
        13.442	             	  5.110e-001 	
        13.503	  4.180e-003 	             	
        13.538	             	  5.110e-001 	
        13.599	  4.190e-003 	             	
        13.602	             	  5.110e-001 	
        13.663	  4.180e-003 	             	
        13.666	             	  5.110e-001 	
        13.727	  4.190e-003 	             	
        13.730	             	  5.110e-001 	
        13.791	  4.190e-003 	             	
        13.794	             	  5.110e-001 	
        13.855	  4.170e-003 	             	
        13.858	             	  5.110e-001 	
        13.919	  4.150e-003 	             	
        13.922	             	  5.110e-001 	
        13.983	  4.100e-003 	             	
        13.986	             	  5.100e-001 	
        14.047	  4.100e-003 	             	
        14.050	             	  5.110e-001 	
        14.111	  4.110e-003 	             	
        14.114	             	  5.110e-001 	
        14.175	  4.080e-003 	             	
        14.178	             	  5.110e-001 	
        14.239	  4.090e-003 	             	
        14.242	             	  5.110e-001 	
        14.303	  4.090e-003 	             	
        14.338	             	  5.100e-001 	
        14.399	  4.080e-003 	             	
        14.402	             	  5.100e-001 	
        14.463	  4.080e-003 	             	
        14.466	             	  5.100e-001 	
        14.527	  4.090e-003 	             	
        14.530	             	  5.100e-001 	
        14.591	  4.070e-003 	             	
        14.593	             	  5.100e-001 	
        14.655	  4.080e-003 	             	
        14.658	             	  5.110e-001 	
        14.719	  4.080e-003 	             	
        14.722	             	  5.110e-001 	
        14.783	  4.080e-003 	             	
        14.786	             	  5.110e-001 	
        14.847	  4.060e-003 	             	
        14.850	             	  5.110e-001 	
        14.912	  4.060e-003 	             	
        14.915	             	  5.110e-001 	
        14.976	  4.070e-003 	             	
        14.978	             	  5.110e-001 	
        15.040	  4.070e-003 	             	
        15.042	             	  5.110e-001 	
        15.104	  4.070e-003 	             	
        15.139	             	  5.110e-001 	
        15.200	  4.060e-003 	             	
        15.203	             	  5.110e-001 	
        15.264	  4.050e-003 	             	
        15.266	             	  5.110e-001 	
        15.328	  4.070e-003 	             	
        15.330	             	  5.110e-001 	
        15.392	  4.050e-003 	             	
        15.395	             	  5.100e-001 	
        15.456	  4.050e-003 	             	
        15.459	             	  5.100e-001 	
        15.520	  4.060e-003 	             	
        15.523	             	  5.100e-001 	
        15.584	  4.060e-003 	             	
        15.587	             	  5.100e-001 	
        15.648	  4.060e-003 	             	
        15.651	             	  5.110e-001 	
        15.712	  4.060e-003 	             	
        15.715	             	  5.110e-001 	
        15.776	  4.070e-003 	             	
        15.779	             	  5.110e-001 	
        15.840	  4.060e-003 	             	
        15.842	             	  5.110e-001 	
        15.904	  4.070e-003 	             	
        15.939	             	  5.110e-001 	
        16.000	  4.070e-003 	             	
        16.002	             	  5.110e-001 	
        16.064	  4.060e-003 	             	
        16.067	             	  5.100e-001 	
        16.128	  4.070e-003 	             	
        16.130	             	  5.100e-001 	
        16.192	  4.080e-003 	             	
        16.194	             	  5.100e-001 	
        16.256	  4.080e-003 	             	
        16.258	             	  5.100e-001 	
        16.320	  4.070e-003 	             	
        16.322	             	  5.100e-001 	
        16.384	  4.090e-003 	             	
        16.386	             	  5.100e-001 	
        16.448	  4.090e-003 	             	
        16.450	             	  5.100e-001 	
        16.512	  4.100e-003 	             	
        16.514	             	  5.100e-001 	
        16.576	  4.130e-003 	             	
        16.578	             	  5.100e-001 	
        16.640	  4.130e-003 	             	
        16.642	             	  5.100e-001 	
        16.704	  4.130e-003 	             	
        16.738	             	  5.100e-001 	
        16.768	  4.160e-003 	             	
        16.802	             	  5.100e-001 	
        16.864	  4.170e-003 	             	
        16.866	             	  5.100e-001 	
        16.928	  4.190e-003 	             	
        16.930	             	  5.100e-001 	
        16.992	  4.170e-003 	             	
        16.994	             	  5.100e-001 	
        17.056	  4.130e-003 	             	
        17.058	             	  5.100e-001 	
        17.120	  4.110e-003 	             	
        17.122	             	  5.100e-001 	
        17.184	  4.130e-003 	             	
        17.186	             	  5.100e-001 	
        17.248	  4.150e-003 	             	
        17.250	             	  5.100e-001 	
        17.312	  4.150e-003 	             	
        17.314	             	  5.100e-001 	
        17.376	  4.160e-003 	             	
        17.378	             	  5.100e-001 	
        17.440	  4.180e-003 	             	
        17.442	             	  5.100e-001 	
        17.504	  4.170e-003 	             	
        17.538	             	  5.100e-001 	
        17.568	  4.160e-003 	             	
        17.602	             	  5.100e-001 	
        17.663	  4.150e-003 	             	
        17.666	             	  5.100e-001 	
        17.728	  4.170e-003 	             	
        17.730	             	  5.100e-001 	
        17.792	  4.180e-003 	             	
        17.794	             	  5.100e-001 	
        17.856	  4.180e-003 	             	
        17.858	             	  5.100e-001 	
        17.920	  4.150e-003 	             	
        17.922	             	  5.100e-001 	
        17.983	  4.150e-003 	             	
        17.986	             	  5.100e-001 	
        18.048	  4.190e-003 	             	
        18.050	             	  5.100e-001 	
        18.112	  4.180e-003 	             	
        18.114	             	  5.100e-001 	
        18.175	  4.190e-003 	             	
        18.178	             	  5.100e-001 	
        18.240	  4.190e-003 	             	
        18.242	             	  5.100e-001 	
        18.304	  4.180e-003 	             	
        18.338	             	  5.100e-001 	
        18.368	  4.150e-003 	             	
        18.402	             	  5.100e-001 	
        18.464	  4.080e-003 	             	
        18.466	             	  5.100e-001 	
        18.528	  4.080e-003 	             	
        18.530	             	  5.100e-001 	
        18.592	  4.070e-003 	             	
        18.594	             	  5.110e-001 	
        18.655	  4.050e-003 	             	
        18.658	             	  5.100e-001 	
        18.720	  4.040e-003 	             	
        18.722	             	  5.100e-001 	
        18.783	  4.030e-003 	             	
        18.786	             	  5.100e-001 	
        18.847	  4.010e-003 	             	
        18.850	             	  5.100e-001 	
        18.912	  3.990e-003 	             	
        18.914	             	  5.100e-001 	
        18.975	  4.000e-003 	             	
        18.978	             	  5.100e-001 	
        19.039	  4.000e-003 	             	
        19.042	             	  5.100e-001 	
        19.103	  3.990e-003 	             	
        19.138	             	  5.100e-001 	
        19.167	  4.000e-003 	             	
        19.202	             	  5.100e-001 	
        19.263	  3.990e-003 	             	
        19.266	             	  5.100e-001 	
        19.327	  3.970e-003 	             	
        19.330	             	  5.100e-001 	
        19.391	  3.950e-003 	             	
        19.394	             	  5.100e-001 	
        19.455	  3.950e-003 	             	
        19.458	             	  5.100e-001 	
        19.519	  3.950e-003 	             	
        19.522	             	  5.100e-001 	
        19.583	  3.940e-003 	             	
        19.586	             	  5.100e-001 	
        19.647	  3.930e-003 	             	
        19.650	             	  5.100e-001 	
        19.711	  3.950e-003 	             	
        19.714	             	  5.110e-001 	
        19.775	  3.940e-003 	             	
        19.778	             	  5.110e-001 	
        19.839	  3.930e-003 	             	
        19.842	             	  5.100e-001 	
        19.903	  3.940e-003 	             	
        19.938	             	  5.100e-001 	
        19.999	  3.940e-003 	             	
        20.002	             	  5.100e-001 	
        20.063	  3.950e-003 	             	
        20.066	             	  5.100e-001 	
        20.127	  3.940e-003 	             	
        20.130	             	  5.100e-001 	
        20.191	  3.950e-003 	             	
        20.194	             	  5.100e-001 	
        20.255	  3.950e-003 	             	
        20.258	             	  5.100e-001 	
        20.319	  3.940e-003 	             	
        20.322	             	  5.100e-001 	
        20.383	  3.950e-003 	             	
        20.386	             	  5.100e-001 	
        20.447	  3.950e-003 	             	
        20.450	             	  5.100e-001 	
        20.511	  3.930e-003 	             	
        20.514	             	  5.100e-001 	
        20.575	  3.950e-003 	             	
        20.578	             	  5.100e-001 	
        20.639	  3.950e-003 	             	
        20.642	             	  5.100e-001 	
        20.703	  3.950e-003 	             	
        20.738	             	  5.100e-001 	
        20.767	  3.900e-003 	             	
        20.802	             	  5.100e-001 	
        20.863	  3.870e-003 	             	
        20.866	             	  5.100e-001 	
        20.927	  3.870e-003 	             	
        20.930	             	  5.100e-001 	
        20.991	  3.860e-003 	             	
        20.994	             	  5.100e-001 	
        21.055	  3.880e-003 	             	
        21.058	             	  5.100e-001 	
        21.119	  3.870e-003 	             	
        21.122	             	  5.100e-001 	
        21.183	  3.860e-003 	             	
        21.186	             	  5.100e-001 	
        21.247	  3.860e-003 	             	
        21.250	             	  5.110e-001 	
        21.311	  3.880e-003 	             	
        21.314	             	  5.110e-001 	
        21.375	  3.880e-003 	             	
        21.378	             	  5.100e-001 	
        21.439	  3.900e-003 	             	
        21.442	             	  5.100e-001 	
        21.503	  3.890e-003 	             	
        21.538	             	  5.100e-001 	
        21.567	  3.900e-003 	             	
        21.602	             	  5.100e-001 	
        21.663	  3.900e-003 	             	
        21.666	             	  5.100e-001 	
        21.727	  3.940e-003 	             	
        21.730	             	  5.100e-001 	
        21.791	  3.920e-003 	             	
        21.794	             	  5.100e-001 	
        21.855	  3.910e-003 	             	
        21.858	             	  5.100e-001 	
        21.919	  3.910e-003 	             	
        21.922	             	  5.100e-001 	
        21.983	  3.930e-003 	             	
        21.986	             	  5.100e-001 	
        22.047	  3.920e-003 	             	
        22.050	             	  5.100e-001 	
        22.111	  3.950e-003 	             	
        22.114	             	  5.100e-001 	
        22.175	  3.950e-003 	             	
        22.178	             	  5.100e-001 	
        22.239	  3.960e-003 	             	
        22.242	             	  5.100e-001 	
        22.303	  3.980e-003 	             	
        22.338	             	  5.100e-001 	
        22.367	  3.980e-003 	             	
        22.402	             	  5.100e-001 	
        22.463	  4.000e-003 	             	
        22.466	             	  5.100e-001 	
        22.527	  4.010e-003 	             	
        22.530	             	  5.100e-001 	
        22.591	  4.020e-003 	             	
        22.594	             	  5.100e-001 	
        22.655	  4.050e-003 	             	
        22.658	             	  5.100e-001 	
        22.719	  4.090e-003 	             	
        22.722	             	  5.100e-001 	
        22.783	  4.080e-003 	             	
        22.786	             	  5.100e-001 	
        22.847	  4.100e-003 	             	
        22.850	             	  5.100e-001 	
        22.911	  4.110e-003 	             	
        22.914	             	  5.100e-001 	
        22.975	  4.090e-003 	             	
        22.978	             	  5.100e-001 	
        23.039	  4.090e-003 	             	
        23.042	             	  5.100e-001 	
        23.103	  4.090e-003 	             	
        23.138	             	  5.100e-001 	
        23.167	  4.110e-003 	             	
        23.202	             	  5.100e-001 	
        23.263	  4.130e-003 	             	
        23.266	             	  5.100e-001 	
        23.327	  4.140e-003 	             	
        23.330	             	  5.100e-001 	
        23.391	  4.160e-003 	             	
        23.394	             	  5.100e-001 	
        23.455	  4.140e-003 	             	
        23.458	             	  5.100e-001 	
        23.519	  4.130e-003 	             	
        23.522	             	  5.100e-001 	
        23.583	  4.140e-003 	             	
        23.586	             	  5.100e-001 	
        23.647	  4.140e-003 	             	
        23.650	             	  5.100e-001 	
        23.711	  4.150e-003 	             	
        23.714	             	  5.100e-001 	
        23.775	  4.140e-003 	             	
        23.778	             	  5.100e-001 	
        23.839	  4.120e-003 	             	
        23.842	             	  5.100e-001 	
        23.903	  4.140e-003 	             	
        23.938	             	  5.100e-001 	
        23.967	  4.170e-003 	             	
        24.002	             	  5.100e-001 	
        24.063	  4.150e-003 	             	
        24.066	             	  5.100e-001 	
        24.127	  4.170e-003 	             	
        24.130	             	  5.100e-001 	
        24.191	  4.180e-003 	             	
        24.194	             	  5.100e-001 	
        24.255	  4.150e-003 	             	
        24.258	             	  5.100e-001 	
        24.319	  4.100e-003 	             	
        24.322	             	  5.100e-001 	
        24.383	  4.090e-003 	             	
        24.386	             	  5.100e-001 	
        24.447	  4.090e-003 	             	
        24.450	             	  5.100e-001 	
        24.511	  4.080e-003 	             	
        24.514	             	  5.100e-001 	
        24.575	  4.080e-003 	             	
        24.578	             	  5.100e-001 	
        24.639	  4.080e-003 	             	
        24.642	             	  5.100e-001 	
        24.703	  4.070e-003 	             	
        24.738	             	  5.100e-001 	
        24.767	  4.050e-003 	             	
        24.802	             	  5.100e-001 	
        24.863	  3.960e-003 	             	
        24.866	             	  5.100e-001 	
        24.927	  3.910e-003 	             	
        24.930	             	  5.100e-001 	
        24.991	  3.900e-003 	             	
        24.994	             	  5.110e-001 	
        25.055	  3.880e-003 	             	
        25.058	             	  5.110e-001 	
        25.119	  3.860e-003 	             	
        25.122	             	  5.110e-001 	
        25.183	  3.850e-003 	             	
        25.186	             	  5.110e-001 	
        25.247	  3.840e-003 	             	
        25.250	             	  5.110e-001 	
        25.311	  3.840e-003 	             	
        25.314	             	  5.110e-001 	
        25.375	  3.820e-003 	             	
        25.378	             	  5.110e-001 	
        25.439	  3.820e-003 	             	
        25.442	             	  5.110e-001 	
        25.503	  3.820e-003 	             	
        25.506	             	  5.110e-001 	
        25.567	  3.800e-003 	             	
        25.602	             	  5.100e-001 	
        25.663	  3.810e-003 	             	
        25.666	             	  5.110e-001 	
        25.727	  3.810e-003 	             	
        25.730	             	  5.110e-001 	
        25.791	  3.810e-003 	             	
        25.794	             	  5.110e-001 	
        25.855	  3.810e-003 	             	
        25.858	             	  5.110e-001 	
        25.919	  3.820e-003 	             	
        25.922	             	  5.110e-001 	
        25.983	  3.810e-003 	             	
        25.986	             	  5.110e-001 	
        26.047	  3.810e-003 	             	
        26.050	             	  5.100e-001 	
        26.111	  3.770e-003 	             	
        26.114	             	  5.100e-001 	
        26.175	  3.830e-003 	             	
        26.178	             	  5.100e-001 	
        26.239	  3.820e-003 	             	
        26.242	             	  5.100e-001 	
        26.303	  3.820e-003 	             	
        26.306	             	  5.100e-001 	
        26.367	  3.840e-003 	             	
        26.402	             	  5.100e-001 	
        26.463	  3.840e-003 	             	
        26.466	             	  5.100e-001 	
        26.527	  3.830e-003 	             	
        26.530	             	  5.100e-001 	
        26.591	  3.860e-003 	             	
        26.594	             	  5.110e-001 	
        26.655	  3.860e-003 	             	
        26.658	             	  5.110e-001 	
        26.719	  3.890e-003 	             	
        26.722	             	  5.110e-001 	
        26.783	  3.920e-003 	             	
        26.786	             	  5.110e-001 	
        26.847	  3.920e-003 	             	
        26.850	             	  5.110e-001 	
        26.911	  3.930e-003 	             	
        26.914	             	  5.110e-001 	
        26.975	  3.920e-003 	             	
        26.978	             	  5.110e-001 	
        27.039	  3.910e-003 	             	
        27.042	             	  5.110e-001 	
        27.103	  3.930e-003 	             	
        27.106	             	  5.110e-001 	
        27.167	  3.930e-003 	             	
        27.202	             	  5.110e-001 	
        27.263	  3.930e-003 	             	
        27.266	             	  5.110e-001 	
        27.327	  3.950e-003 	             	
        27.330	             	  5.110e-001 	
        27.391	  3.960e-003 	             	
        27.394	             	  5.110e-001 	
        27.455	  3.990e-003 	             	
        27.458	             	  5.110e-001 	
        27.519	  4.020e-003 	             	
        27.522	             	  5.110e-001 	
        27.583	  4.040e-003 	             	
        27.586	             	  5.110e-001 	
        27.647	  4.070e-003 	             	
        27.650	             	  5.110e-001 	
        27.711	  4.090e-003 	             	
        27.714	             	  5.110e-001 	
        27.775	  4.130e-003 	             	
        27.778	             	  5.110e-001 	
        27.839	  4.160e-003 	             	
        27.842	             	  5.110e-001 	
        27.903	  4.180e-003 	             	
        27.906	             	  5.110e-001 	
        27.967	  4.210e-003 	             	
        28.002	             	  5.110e-001 	
        28.063	  4.260e-003 	             	
        28.066	             	  5.110e-001 	
        28.127	  4.300e-003 	             	
        28.130	             	  5.110e-001 	
        28.191	  4.320e-003 	             	
        28.194	             	  5.100e-001 	
        28.255	  4.360e-003 	             	
        28.258	             	  5.100e-001 	
        28.319	  4.370e-003 	             	
        28.322	             	  5.110e-001 	
        28.383	  4.410e-003 	             	
        28.386	             	  5.110e-001 	
        28.447	  4.430e-003 	             	
        28.450	             	  5.110e-001 	
        28.511	  4.470e-003 	             	
        28.514	             	  5.100e-001 	
        28.575	  4.520e-003 	             	
        28.578	             	  5.100e-001 	
        28.639	  4.510e-003 	             	
        28.642	             	  5.100e-001 	
        28.703	  4.530e-003 	             	
        28.706	             	  5.100e-001 	
        28.767	  4.540e-003 	             	
        28.802	             	  5.100e-001 	
        28.863	  4.510e-003 	             	
        28.866	             	  5.110e-001 	
        28.927	  4.470e-003 	             	
        28.930	             	  5.110e-001 	
        28.991	  4.420e-003 	             	
        28.994	             	  5.110e-001 	
        29.055	  4.440e-003 	             	
        29.058	             	  5.110e-001 	
        29.119	  4.450e-003 	             	
        29.122	             	  5.110e-001 	
        29.183	  4.470e-003 	             	
        29.186	             	  5.110e-001 	
        29.247	  4.440e-003 	             	
        29.250	             	  5.110e-001 	
        29.311	  4.390e-003 	             	
        29.314	             	  5.110e-001 	
        29.375	  4.360e-003 	             	
        29.378	             	  5.110e-001 	
        29.439	  4.240e-003 	             	
        29.442	             	  5.110e-001 	
        29.503	  4.210e-003 	             	
        29.506	             	  5.110e-001 	
        29.567	  4.120e-003 	             	
        29.602	             	  5.110e-001 	
        29.631	  3.970e-003 	             	
        29.666	             	  5.110e-001 	
        29.727	  3.980e-003 	             	
        29.730	             	  5.110e-001 	
        29.791	  3.970e-003 	             	
        29.794	             	  5.110e-001 	
        29.855	  3.960e-003 	             	
        29.858	             	  5.110e-001 	
        29.919	  3.960e-003 	             	
        29.922	             	  5.100e-001 	
        29.983	  3.960e-003 	             	
        29.986	             	  5.100e-001 	
        30.047	  3.940e-003 	             	
        30.050	             	  5.100e-001 	
        30.111	  3.950e-003 	             	
        30.114	             	  5.110e-001 	
        30.175	  3.940e-003 	             	
        30.178	             	  5.110e-001 	
        30.239	  3.900e-003 	             	
        30.242	             	  5.110e-001 	
        30.303	  3.890e-003 	             	
        30.306	             	  5.110e-001 	
        30.367	  3.870e-003 	             	
        30.402	             	  5.110e-001 	
        30.463	  3.860e-003 	             	
        30.466	             	  5.110e-001 	
        30.527	  3.810e-003 	             	
        30.530	             	  5.110e-001 	
        30.591	  3.810e-003 	             	
        30.594	             	  5.110e-001 	
        30.655	  3.800e-003 	             	
        30.658	             	  5.110e-001 	
        30.719	  3.800e-003 	             	
        30.722	             	  5.110e-001 	
        30.783	  3.800e-003 	             	
        30.786	             	  5.110e-001 	
        30.847	  3.770e-003 	             	
        30.850	             	  5.110e-001 	
        30.911	  3.760e-003 	             	
        30.914	             	  5.100e-001 	
        30.975	  3.790e-003 	             	
        30.978	             	  5.100e-001 	
        31.039	  3.810e-003 	             	
        31.042	             	  5.100e-001 	
        31.103	  3.810e-003 	             	
        31.106	             	  5.110e-001 	
        31.167	  3.810e-003 	             	
        31.202	             	  5.100e-001 	
        31.231	  3.810e-003 	             	
        31.266	             	  5.100e-001 	
        31.327	  3.800e-003 	             	
        31.330	             	  5.110e-001 	
        31.391	  3.810e-003 	             	
        31.394	             	  5.110e-001 	
        31.455	  3.810e-003 	             	
        31.458	             	  5.100e-001 	
        31.519	  3.810e-003 	             	
        31.522	             	  5.100e-001 	
        31.583	  3.830e-003 	             	
        31.586	             	  5.100e-001 	
        31.647	  3.830e-003 	             	
        31.650	             	  5.100e-001 	
        31.711	  3.840e-003 	             	
        31.714	             	  5.100e-001 	
        31.775	  3.860e-003 	             	
        31.778	             	  5.100e-001 	
        31.839	  3.880e-003 	             	
        31.842	             	  5.100e-001 	
        31.903	  3.910e-003 	             	
        31.906	             	  5.100e-001 	
        31.967	  3.920e-003 	             	
        32.002	             	  5.100e-001 	
        32.031	  3.970e-003 	             	
        32.066	             	  5.100e-001 	
        32.127	  4.000e-003 	             	
        32.130	             	  5.100e-001 	
        32.191	  4.030e-003 	             	
        32.194	             	  5.100e-001 	
        32.255	  4.070e-003 	             	
        32.258	             	  5.110e-001 	
        32.319	  4.120e-003 	             	
        32.322	             	  5.110e-001 	
        32.383	  4.090e-003 	             	
        32.386	             	  5.110e-001 	
        32.448	  4.090e-003 	             	
        32.451	             	  5.110e-001 	
        32.512	  4.120e-003 	             	
        32.515	             	  5.110e-001 	
        32.576	  4.120e-003 	             	
        32.579	             	  5.100e-001 	
        32.640	  4.140e-003 	             	
        32.643	             	  5.100e-001 	
        32.704	  4.170e-003 	             	
        32.707	             	  5.100e-001 	
        32.768	  4.180e-003 	             	
        32.803	             	  5.100e-001 	
        32.832	  4.200e-003 	             	
        32.866	             	  5.100e-001 	
        32.928	  4.240e-003 	             	
        32.931	             	  5.100e-001 	
        32.992	  4.280e-003 	             	
        32.994	             	  5.100e-001 	
        33.056	  4.300e-003 	             	
        33.058	             	  5.100e-001 	
        33.120	  4.340e-003 	             	
        33.123	             	  5.100e-001 	
        33.184	  4.380e-003 	             	
        33.187	             	  5.100e-001 	
        33.248	  4.380e-003 	             	
        33.250	             	  5.100e-001 	
        33.312	  4.430e-003 	             	
        33.314	             	  5.100e-001 	
        33.376	  4.450e-003 	             	
        33.378	             	  5.100e-001 	
        33.440	  4.500e-003 	             	
        33.443	             	  5.100e-001 	
        33.504	  4.540e-003 	             	
        33.506	             	  5.100e-001 	
        33.568	  4.570e-003 	             	
        33.603	             	  5.100e-001 	
        33.632	  4.610e-003 	             	
        33.667	             	  5.100e-001 	
        33.728	  4.600e-003 	             	
        33.730	             	  5.100e-001 	
        33.792	  4.620e-003 	             	
        33.794	             	  5.110e-001 	
        33.856	  4.640e-003 	             	
        33.859	             	  5.110e-001 	
        33.920	  4.700e-003 	             	
        33.922	             	  5.110e-001 	
        33.984	  4.740e-003 	             	
        33.986	             	  5.110e-001 	
        34.048	  4.750e-003 	             	
        34.050	             	  5.110e-001 	
        34.112	  4.720e-003 	             	
        34.114	             	  5.110e-001 	
        34.176	  4.720e-003 	             	
        34.178	             	  5.110e-001 	
        34.239	  4.710e-003 	             	
        34.242	             	  5.110e-001 	
        34.304	  4.720e-003 	             	
        34.306	             	  5.110e-001 	
        34.368	  4.720e-003 	             	
        34.402	             	  5.110e-001 	
        34.432	  4.730e-003 	             	
        34.466	             	  5.110e-001 	
        34.528	  4.780e-003 	             	
        34.530	             	  5.110e-001 	
        34.592	  4.790e-003 	             	
        34.594	             	  5.110e-001 	
        34.656	  4.810e-003 	             	
        34.658	             	  5.110e-001 	
        34.719	  4.850e-003 	             	
        34.722	             	  5.110e-001 	
        34.784	  4.680e-003 	             	
        34.786	             	  5.100e-001 	
        34.848	  4.610e-003 	             	
        34.850	             	  5.100e-001 	
        34.912	  4.550e-003 	             	
        34.914	             	  5.100e-001 	
        34.976	  4.320e-003 	             	
        34.978	             	  5.100e-001 	
        35.039	  4.280e-003 	             	
        35.042	             	  5.100e-001 	
        35.104	  4.240e-003 	             	
        35.106	             	  5.100e-001 	
        35.168	  4.260e-003 	             	
        35.202	             	  5.100e-001 	
        35.231	  4.260e-003 	             	
        35.266	             	  5.100e-001 	
        35.328	  4.240e-003 	             	
        35.330	             	  5.100e-001 	
        35.392	  4.220e-003 	             	
        35.394	             	  5.100e-001 	
        35.455	  4.150e-003 	             	
        35.458	             	  5.100e-001 	
        35.520	  4.110e-003 	             	
        35.522	             	  5.100e-001 	
        35.584	  4.100e-003 	             	
        35.586	             	  5.100e-001 	
        35.647	  4.060e-003 	             	
        35.650	             	  5.100e-001 	
        35.712	  4.050e-003 	             	
        35.714	             	  5.100e-001 	
        35.776	  4.040e-003 	             	
        35.778	             	  5.100e-001 	
        35.840	  4.020e-003 	             	
        35.842	             	  5.100e-001 	
        35.903	  4.020e-003 	             	
        35.906	             	  5.100e-001 	
        35.967	  4.040e-003 	             	
        36.002	             	  5.100e-001 	
        36.032	  4.010e-003 	             	
        36.066	             	  5.100e-001 	
        36.127	  4.000e-003 	             	
        36.131	             	  5.100e-001 	
        36.191	  3.990e-003 	             	
        36.194	             	  5.100e-001 	
        36.255	  3.990e-003 	             	
        36.258	             	  5.100e-001 	
        36.319	  3.980e-003 	             	
        36.322	             	  5.100e-001 	
        36.383	  3.990e-003 	             	
        36.386	             	  5.100e-001 	
        36.447	  4.010e-003 	             	
        36.450	             	  5.110e-001 	
        36.511	  3.990e-003 	             	
        36.514	             	  5.110e-001 	
        36.575	  4.000e-003 	             	
        36.578	             	  5.110e-001 	
        36.639	  3.980e-003 	             	
        36.642	             	  5.100e-001 	
        36.703	  3.990e-003 	             	
        36.706	             	  5.100e-001 	
        36.767	  3.970e-003 	             	
        36.802	             	  5.100e-001 	
        36.831	  3.990e-003 	             	
        36.866	             	  5.100e-001 	
        36.927	  3.950e-003 	             	
        36.930	             	  5.100e-001 	
        36.991	  3.950e-003 	             	
        36.994	             	  5.100e-001 	
        37.055	  3.970e-003 	             	
        37.058	             	  5.100e-001 	
        37.119	  3.970e-003 	             	
        37.122	             	  5.100e-001 	
        37.183	  3.970e-003 	             	
        37.186	             	  5.100e-001 	
        37.247	  3.980e-003 	             	
        37.250	             	  5.100e-001 	
        37.311	  3.990e-003 	             	
        37.314	             	  5.100e-001 	
        37.376	  4.010e-003 	             	
        37.378	             	  5.100e-001 	
        37.439	  4.050e-003 	             	
        37.442	             	  5.100e-001 	
        37.503	  4.090e-003 	             	
        37.506	             	  5.100e-001 	
        37.567	  4.120e-003 	             	
        37.602	             	  5.100e-001 	
        37.631	  4.180e-003 	             	
        37.666	             	  5.100e-001 	
        37.727	  4.220e-003 	             	
        37.730	             	  5.100e-001 	
        37.791	  4.240e-003 	             	
        37.794	             	  5.100e-001 	
        37.855	  4.320e-003 	             	
        37.858	             	  5.100e-001 	
        37.919	  4.370e-003 	             	
        37.922	             	  5.100e-001 	
        37.983	  4.460e-003 	             	
        37.986	             	  5.110e-001 	
        38.047	  4.510e-003 	             	
        38.050	             	  5.100e-001 	
        38.111	  4.590e-003 	             	
        38.114	             	  5.100e-001 	
        38.175	  4.670e-003 	             	
        38.178	             	  5.100e-001 	
        38.239	  4.760e-003 	             	
        38.242	             	  5.100e-001 	
        38.303	  4.850e-003 	             	
        38.306	             	  5.100e-001 	
        38.367	  4.900e-003 	             	
        38.370	             	  5.100e-001 	
        38.431	  4.960e-003 	             	
        38.466	             	  5.100e-001 	
        38.527	  4.910e-003 	             	
        38.530	             	  5.100e-001 	
        38.591	  4.880e-003 	             	
        38.594	             	  5.100e-001 	
        38.655	  4.850e-003 	             	
        38.658	             	  5.100e-001 	
        38.719	  4.810e-003 	             	
        38.722	             	  5.100e-001 	
        38.783	  4.780e-003 	             	
        38.786	             	  5.100e-001 	
        38.847	  4.750e-003 	             	
        38.850	             	  5.100e-001 	
        38.911	  4.770e-003 	             	
        38.914	             	  5.100e-001 	
        38.975	  4.740e-003 	             	
        38.978	             	  5.100e-001 	
        39.039	  4.680e-003 	             	
        39.042	             	  5.100e-001 	
        39.103	  4.620e-003 	             	
        39.106	             	  5.100e-001 	
        39.167	  4.560e-003 	             	
        39.170	             	  5.100e-001 	
        39.231	  4.520e-003 	             	
        39.266	             	  5.100e-001 	
        39.327	  4.510e-003 	             	
        39.330	             	  5.100e-001 	
        39.391	  4.480e-003 	             	
        39.394	             	  5.100e-001 	
        39.455	  4.460e-003 	             	
        39.458	             	  5.100e-001 	
        39.519	  4.460e-003 	             	
        39.522	             	  5.100e-001 	
        39.583	  4.460e-003 	             	
        39.586	             	  5.100e-001 	
        39.647	  4.470e-003 	             	
        39.650	             	  5.100e-001 	
        39.711	  4.480e-003 	             	
        39.714	             	  5.100e-001 	
        39.775	  4.470e-003 	             	
        39.778	             	  5.100e-001 	
        39.839	  4.450e-003 	             	
        39.842	             	  5.100e-001 	
        39.903	  4.290e-003 	             	
        39.906	             	  5.100e-001 	
        39.967	  4.220e-003 	             	
        39.970	             	  5.100e-001 	
        40.031	  4.180e-003 	             	
        40.066	             	  5.100e-001 	
        40.127	  4.160e-003 	             	
        40.130	             	  5.100e-001 	
        40.191	  4.170e-003 	             	
        40.194	             	  5.100e-001 	
        40.255	  4.180e-003 	             	
        40.258	             	  5.100e-001 	
        40.319	  4.190e-003 	             	
        40.322	             	  5.100e-001 	
        40.383	  4.200e-003 	             	
        40.386	             	  5.100e-001 	
        40.447	  4.220e-003 	             	
        40.450	             	  5.100e-001 	
        40.511	  4.210e-003 	             	
        40.514	             	  5.100e-001 	
        40.575	  4.180e-003 	             	
        40.578	             	  5.100e-001 	
        40.639	  4.190e-003 	             	
        40.642	             	  5.100e-001 	
        40.703	  4.150e-003 	             	
        40.706	             	  5.100e-001 	
        40.767	  4.140e-003 	             	
        40.770	             	  5.100e-001 	
        40.831	  4.120e-003 	             	
        40.866	             	  5.100e-001 	
        40.927	  4.110e-003 	             	
        40.930	             	  5.100e-001 	
        40.991	  4.100e-003 	             	
        40.994	             	  5.100e-001 	
        41.055	  4.120e-003 	             	
        41.058	             	  5.100e-001 	
        41.119	  4.100e-003 	             	
        41.122	             	  5.100e-001 	
        41.183	  4.100e-003 	             	
        41.186	             	  5.100e-001 	
        41.247	  4.080e-003 	             	
        41.250	             	  5.100e-001 	
        41.311	  4.100e-003 	             	
        41.314	             	  5.100e-001 	
        41.375	  4.090e-003 	             	
        41.378	             	  5.100e-001 	
        41.439	  4.090e-003 	             	
        41.442	             	  5.100e-001 	
        41.503	  4.100e-003 	             	
        41.506	             	  5.100e-001 	
        41.567	  4.120e-003 	             	
        41.570	             	  5.100e-001 	
        41.631	  4.120e-003 	             	
        41.666	             	  5.100e-001 	
        41.727	  4.130e-003 	             	
        41.730	             	  5.100e-001 	
        41.791	  4.130e-003 	             	
        41.794	             	  5.100e-001 	
        41.855	  4.120e-003 	             	
        41.858	             	  5.100e-001 	
        41.919	  4.130e-003 	             	
        41.922	             	  5.100e-001 	
        41.983	  4.150e-003 	             	
        41.986	             	  5.100e-001 	
        42.047	  4.160e-003 	             	
        42.050	             	  5.100e-001 	
        42.111	  4.180e-003 	             	
        42.114	             	  5.100e-001 	
        42.175	  4.200e-003 	             	
        42.178	             	  5.100e-001 	
        42.239	  4.150e-003 	             	
        42.242	             	  5.100e-001 	
        42.303	  4.090e-003 	             	
        42.306	             	  5.100e-001 	
        42.367	  4.060e-003 	             	
        42.370	             	  5.100e-001 	
        42.431	  4.060e-003 	             	
        42.466	             	  5.100e-001 	
        42.527	  4.060e-003 	             	
        42.530	             	  5.100e-001 	
        42.591	  4.050e-003 	             	
        42.594	             	  5.100e-001 	
        42.655	  4.080e-003 	             	
        42.658	             	  5.100e-001 	
        42.719	  4.090e-003 	             	
        42.722	             	  5.100e-001 	
        42.783	  4.090e-003 	             	
        42.786	             	  5.100e-001 	
        42.847	  4.120e-003 	             	
        42.850	             	  5.100e-001 	
        42.911	  4.150e-003 	             	
        42.914	             	  5.100e-001 	
        42.975	  4.170e-003 	             	
        42.978	             	  5.100e-001 	
        43.039	  4.200e-003 	             	
        43.042	             	  5.090e-001 	
        43.103	  4.230e-003 	             	
        43.106	             	  5.090e-001 	
        43.167	  4.290e-003 	             	
        43.170	             	  5.100e-001 	
        43.231	  4.320e-003 	             	
        43.266	             	  5.100e-001 	
        43.295	  4.360e-003 	             	
        43.330	             	  5.100e-001 	
        43.391	  4.450e-003 	             	
        43.394	             	  5.100e-001 	
        43.455	  4.510e-003 	             	
        43.458	             	  5.100e-001 	
        43.519	  4.550e-003 	             	
        43.522	             	  5.100e-001 	
        43.583	  4.610e-003 	             	
        43.586	             	  5.100e-001 	
        43.647	  4.680e-003 	             	
        43.650	             	  5.100e-001 	
        43.711	  4.720e-003 	             	
        43.714	             	  5.100e-001 	
        43.775	  4.780e-003 	             	
        43.778	             	  5.100e-001 	
        43.839	  4.840e-003 	             	
        43.842	             	  5.100e-001 	
        43.903	  4.830e-003 	             	
        43.906	             	  5.100e-001 	
        43.967	  4.860e-003 	             	
        43.970	             	  5.100e-001 	
        44.031	  4.890e-003 	             	
        44.066	             	  5.100e-001 	
        44.095	  4.940e-003 	             	
        44.130	             	  5.100e-001 	
        44.191	  5.000e-003 	             	
        44.194	             	  5.100e-001 	
        44.255	  5.050e-003 	             	
        44.258	             	  5.100e-001 	
        44.319	  5.110e-003 	             	
        44.322	             	  5.100e-001 	
        44.383	  5.110e-003 	             	
        44.386	             	  5.100e-001 	
        44.447	  5.160e-003 	             	
        44.450	             	  5.100e-001 	
        44.511	  5.160e-003 	             	
        44.514	             	  5.100e-001 	
        44.575	  5.120e-003 	             	
        44.578	             	  5.100e-001 	
        44.639	  5.020e-003 	             	
        44.642	             	  5.100e-001 	
        44.703	  4.930e-003 	             	
        44.706	             	  5.100e-001 	
        44.767	  4.920e-003 	             	
        44.770	             	  5.100e-001 	
        44.831	  4.950e-003 	             	
        44.866	             	  5.100e-001 	
        44.895	  4.940e-003 	             	
        44.930	             	  5.100e-001 	
        44.991	  4.960e-003 	             	
        44.994	             	  5.100e-001 	
        45.055	  4.700e-003 	             	
        45.058	             	  5.100e-001 	
        45.119	  4.540e-003 	             	
        45.122	             	  5.100e-001 	
        45.183	  4.470e-003 	             	
        45.186	             	  5.100e-001 	
        45.247	  4.350e-003 	             	
        45.250	             	  5.100e-001 	
        45.311	  4.340e-003 	             	
        45.314	             	  5.100e-001 	
        45.375	  4.360e-003 	             	
        45.378	             	  5.110e-001 	
        45.439	  4.370e-003 	             	
        45.442	             	  5.110e-001 	
        45.503	  4.370e-003 	             	
        45.506	             	  5.100e-001 	
        45.567	  4.380e-003 	             	
        45.570	             	  5.100e-001 	
        45.631	  4.370e-003 	             	
        45.666	             	  5.100e-001 	
        45.695	  4.370e-003 	             	
        45.730	             	  5.100e-001 	
        45.791	  4.410e-003 	             	
        45.794	             	  5.100e-001 	
        45.855	  4.410e-003 	             	
        45.858	             	  5.100e-001 	
        45.919	  4.360e-003 	             	
        45.922	             	  5.100e-001 	
        45.983	  4.340e-003 	             	
        45.986	             	  5.100e-001 	
        46.047	  4.320e-003 	             	
        46.050	             	  5.100e-001 	
        46.111	  4.300e-003 	             	
        46.114	             	  5.100e-001 	
        46.175	  4.280e-003 	             	
        46.178	             	  5.100e-001 	
        46.239	  4.270e-003 	             	
        46.242	             	  5.100e-001 	
        46.303	  4.220e-003 	             	
        46.306	             	  5.100e-001 	
        46.367	  4.160e-003 	             	
        46.370	             	  5.100e-001 	
        46.431	  4.200e-003 	             	
        46.466	             	  5.110e-001 	
        46.495	  4.180e-003 	             	
        46.530	             	  5.110e-001 	
        46.591	  4.190e-003 	             	
        46.594	             	  5.110e-001 	
        46.655	  4.180e-003 	             	
        46.658	             	  5.110e-001 	
        46.719	  4.160e-003 	             	
        46.722	             	  5.100e-001 	
        46.783	  4.130e-003 	             	
        46.786	             	  5.100e-001 	
        46.847	  4.090e-003 	             	
        46.850	             	  5.100e-001 	
        46.911	  4.060e-003 	             	
        46.914	             	  5.100e-001 	
        46.975	  4.040e-003 	             	
        46.978	             	  5.100e-001 	
        47.039	  4.060e-003 	             	
        47.042	             	  5.100e-001 	
        47.103	  4.040e-003 	             	
        47.106	             	  5.100e-001 	
        47.167	  4.020e-003 	             	
        47.170	             	  5.110e-001 	
        47.231	  3.980e-003 	             	
        47.266	             	  5.100e-001 	
        47.295	  3.950e-003 	             	
        47.330	             	  5.100e-001 	
        47.391	  3.950e-003 	             	
        47.394	             	  5.100e-001 	
        47.455	  3.930e-003 	             	
        47.458	             	  5.100e-001 	
        47.519	  3.940e-003 	             	
        47.522	             	  5.100e-001 	
        47.583	  3.940e-003 	             	
        47.586	             	  5.100e-001 	
        47.647	  3.950e-003 	             	
        47.650	             	  5.100e-001 	
        47.711	  3.960e-003 	             	
        47.714	             	  5.100e-001 	
        47.775	  3.960e-003 	             	
        47.778	             	  5.100e-001 	
        47.839	  3.960e-003 	             	
        47.842	             	  5.100e-001 	
        47.903	  3.980e-003 	             	
        47.906	             	  5.100e-001 	
        47.967	  3.980e-003 	             	
        47.970	             	  5.100e-001 	
        48.031	  4.020e-003 	             	
        48.066	             	  5.100e-001 	
        48.095	  4.060e-003 	             	
        48.130	             	  5.100e-001 	
        48.191	  4.100e-003 	             	
        48.194	             	  5.100e-001 	
        48.255	  4.170e-003 	             	
        48.258	             	  5.100e-001 	
        48.319	  4.240e-003 	             	
        48.322	             	  5.100e-001 	
        48.383	  4.330e-003 	             	
        48.386	             	  5.100e-001 	
        48.447	  4.410e-003 	             	
        48.450	             	  5.100e-001 	
        48.511	  4.480e-003 	             	
        48.514	             	  5.100e-001 	
        48.575	  4.550e-003 	             	
        48.578	             	  5.100e-001 	
        48.639	  4.630e-003 	             	
        48.642	             	  5.100e-001 	
        48.703	  4.710e-003 	             	
        48.706	             	  5.100e-001 	
        48.767	  4.840e-003 	             	
        48.770	             	  5.100e-001 	
        48.831	  4.960e-003 	             	
        48.866	             	  5.100e-001 	
        48.895	  5.050e-003 	             	
        48.930	             	  5.100e-001 	
        48.991	  5.130e-003 	             	
        48.994	             	  5.100e-001 	
        49.055	  5.200e-003 	             	
        49.058	             	  5.100e-001 	
        49.119	  5.270e-003 	             	
        49.122	             	  5.100e-001 	
        49.183	  5.320e-003 	             	
        49.186	             	  5.100e-001 	
        49.247	  5.360e-003 	             	
        49.250	             	  5.100e-001 	
        49.311	  5.420e-003 	             	
        49.314	             	  5.100e-001 	
        49.375	  5.470e-003 	             	
        49.378	             	  5.100e-001 	
        49.439	  5.480e-003 	             	
        49.442	             	  5.100e-001 	
        49.503	  5.470e-003 	             	
        49.506	             	  5.100e-001 	
        49.567	  5.430e-003 	             	
        49.570	             	  5.100e-001 	
        49.631	  5.170e-003 	             	
        49.666	             	  5.100e-001 	
        49.695	  4.950e-003 	             	
        49.730	             	  5.100e-001 	
        49.791	  4.850e-003 	             	
        49.793	             	  5.100e-001 	
        49.855	  4.750e-003 	             	
        49.858	             	  5.100e-001 	
        49.920	  4.700e-003 	             	
        49.923	             	  5.100e-001 	
        49.984	  4.680e-003 	             	
        49.987	             	  5.110e-001 	
        50.048	  4.650e-003 	             	
        50.050	             	  5.110e-001 	
        50.112	  4.590e-003 	             	
        50.115	             	  5.110e-001 	
        50.176	  4.550e-003 	             	
        50.179	             	  5.110e-001 	
        50.240	  4.560e-003 	             	
        50.243	             	  5.100e-001 	
        50.304	  4.550e-003 	             	
        50.307	             	  5.100e-001 	
        50.368	  4.550e-003 	             	
        50.371	             	  5.100e-001 	
        50.432	  4.560e-003 	             	
        50.467	             	  5.100e-001 	
        50.496	  4.530e-003 	             	
        50.530	             	  5.100e-001 	
        50.592	  4.450e-003 	             	
        50.595	             	  5.100e-001 	
        50.656	  4.370e-003 	             	
        50.659	             	  5.100e-001 	
        50.720	  4.360e-003 	             	
        50.722	             	  5.100e-001 	
        50.784	  4.360e-003 	             	
        50.786	             	  5.100e-001 	
        50.848	  4.360e-003 	             	
        50.850	             	  5.100e-001 	
        50.912	  4.340e-003 	             	
        50.914	             	  5.100e-001 	
        50.976	  4.360e-003 	             	
        50.978	             	  5.100e-001 	
        51.040	  4.360e-003 	             	
        51.042	             	  5.110e-001 	
        51.104	  4.310e-003 	             	
        51.107	             	  5.110e-001 	
        51.168	  4.310e-003 	             	
        51.170	             	  5.110e-001 	
        51.232	  4.310e-003 	             	
        51.234	             	  5.110e-001 	
        51.296	  4.300e-003 	             	
        51.330	             	  5.110e-001 	
        51.392	  4.270e-003 	             	
        51.394	             	  5.110e-001 	
        51.456	  4.210e-003 	             	
        51.458	             	  5.110e-001 	
        51.520	  4.190e-003 	             	
        51.522	             	  5.110e-001 	
        51.584	  4.170e-003 	             	
        51.586	             	  5.110e-001 	
        51.648	  4.160e-003 	             	
        51.650	             	  5.110e-001 	
        51.712	  4.170e-003 	             	
        51.714	             	  5.100e-001 	
        51.776	  4.170e-003 	             	
        51.778	             	  5.100e-001 	
        51.840	  4.190e-003 	             	
        51.842	             	  5.110e-001 	
        51.904	  4.230e-003 	             	
        51.907	             	  5.100e-001 	
        51.968	  4.230e-003 	             	
        51.970	             	  5.100e-001 	
        52.032	  4.230e-003 	             	
        52.034	             	  5.100e-001 	
        52.096	  4.240e-003 	             	
        52.130	             	  5.100e-001 	
        52.192	  4.260e-003 	             	
        52.194	             	  5.100e-001 	
        52.255	  4.270e-003 	             	
        52.258	             	  5.100e-001 	
        52.320	  4.260e-003 	             	
        52.322	             	  5.100e-001 	
        52.384	  4.270e-003 	             	
        52.386	             	  5.100e-001 	
        52.448	  4.310e-003 	             	
        52.450	             	  5.100e-001 	
        52.512	  4.330e-003 	             	
        52.514	             	  5.100e-001 	
        52.576	  4.370e-003 	             	
        52.578	             	  5.100e-001 	
        52.640	  4.400e-003 	             	
        52.642	             	  5.100e-001 	
        52.703	  4.440e-003 	             	
        52.706	             	  5.100e-001 	
        52.767	  4.460e-003 	             	
        52.770	             	  5.100e-001 	
        52.832	  4.490e-003 	             	
        52.834	             	  5.100e-001 	
        52.896	  4.500e-003 	             	
        52.930	             	  5.100e-001 	
        52.992	  4.510e-003 	             	
        52.994	             	  5.100e-001 	
        53.056	  4.460e-003 	             	
        53.058	             	  5.100e-001 	
        53.120	  4.430e-003 	             	
        53.122	             	  5.100e-001 	
        53.184	  4.420e-003 	             	
        53.186	             	  5.100e-001 	
        53.247	  4.410e-003 	             	
        53.250	             	  5.100e-001 	
        53.312	  4.420e-003 	             	
        53.314	             	  5.100e-001 	
        53.375	  4.430e-003 	             	
        53.378	             	  5.100e-001 	
        53.440	  4.450e-003 	             	
        53.442	             	  5.100e-001 	
        53.504	  4.510e-003 	             	
        53.506	             	  5.100e-001 	
        53.568	  4.560e-003 	             	
        53.570	             	  5.100e-001 	
        53.631	  4.610e-003 	             	
        53.634	             	  5.100e-001 	
        53.695	  4.690e-003 	             	
        53.730	             	  5.100e-001 	
        53.792	  4.750e-003 	             	
        53.794	             	  5.100e-001 	
        53.856	  4.820e-003 	             	
        53.858	             	  5.100e-001 	
        53.919	  4.900e-003 	             	
        53.922	             	  5.100e-001 	
        53.983	  4.990e-003 	             	
        53.986	             	  5.100e-001 	
        54.047	  5.090e-003 	             	
        54.050	             	  5.100e-001 	
        54.111	  5.170e-003 	             	
        54.114	             	  5.100e-001 	
        54.175	  5.260e-003 	             	
        54.178	             	  5.100e-001 	
        54.239	  5.310e-003 	             	
        54.242	             	  5.100e-001 	
        54.303	  5.310e-003 	             	
        54.306	             	  5.100e-001 	
        54.367	  5.370e-003 	             	
        54.370	             	  5.100e-001 	
        54.431	  5.390e-003 	             	
        54.434	             	  5.100e-001 	
        54.495	  5.400e-003 	             	
        54.530	             	  5.100e-001 	
        54.591	  5.410e-003 	             	
        54.594	             	  5.100e-001 	
        54.655	  5.400e-003 	             	
        54.658	             	  5.100e-001 	
        54.719	  5.390e-003 	             	
        54.722	             	  5.100e-001 	
        54.783	  5.410e-003 	             	
        54.786	             	  5.100e-001 	
        54.847	  5.400e-003 	             	
        54.850	             	  5.110e-001 	
        54.911	  5.440e-003 	             	
        54.914	             	  5.110e-001 	
        54.975	  5.480e-003 	             	
        54.978	             	  5.110e-001 	
        55.039	  5.460e-003 	             	
        55.042	             	  5.100e-001 	
        55.103	  5.440e-003 	             	
        55.106	             	  5.100e-001 	
        55.167	  5.400e-003 	             	
        55.170	             	  5.100e-001 	
        55.231	  5.340e-003 	             	
        55.234	             	  5.100e-001 	
        55.295	  5.360e-003 	             	
        55.330	             	  5.100e-001 	
        55.391	  5.350e-003 	             	
        55.394	             	  5.100e-001 	
        55.455	  5.370e-003 	             	
        55.458	             	  5.100e-001 	
        55.519	  5.380e-003 	             	
        55.522	             	  5.100e-001 	
        55.583	  5.410e-003 	             	
        55.586	             	  5.100e-001 	
        55.647	  5.420e-003 	             	
        55.650	             	  5.100e-001 	
        55.711	  5.410e-003 	             	
        55.714	             	  5.100e-001 	
        55.775	  5.380e-003 	             	
        55.778	             	  5.100e-001 	
        55.839	  5.370e-003 	             	
        55.842	             	  5.100e-001 	
        55.903	  5.400e-003 	             	
        55.906	             	  5.100e-001 	
        55.967	  5.410e-003 	             	
        55.970	             	  5.100e-001 	
        56.031	  5.390e-003 	             	
        56.034	             	  5.100e-001 	
        56.095	  5.390e-003 	             	
        56.130	             	  5.110e-001 	
        56.159	  5.400e-003 	             	
        56.194	             	  5.110e-001 	
        56.255	  5.440e-003 	             	
        56.258	             	  5.100e-001 	
        56.319	  5.420e-003 	             	
        56.322	             	  5.100e-001 	
        56.383	  5.470e-003 	             	
        56.386	             	  5.100e-001 	
        56.447	  5.450e-003 	             	
        56.450	             	  5.100e-001 	
        56.511	  5.310e-003 	             	
        56.514	             	  5.100e-001 	
        56.575	  5.290e-003 	             	
        56.578	             	  5.100e-001 	
        56.639	  5.300e-003 	             	
        56.642	             	  5.100e-001 	
        56.703	  5.340e-003 	             	
        56.706	             	  5.110e-001 	
        56.767	  5.340e-003 	             	
        56.770	             	  5.110e-001 	
        56.831	  5.360e-003 	             	
        56.834	             	  5.110e-001 	
        56.895	  5.350e-003 	             	
        56.930	             	  5.100e-001 	
        56.991	  5.280e-003 	             	
        56.994	             	  5.100e-001 	
        57.055	  5.230e-003 	             	
        57.058	             	  5.100e-001 	
        57.119	  5.240e-003 	             	
        57.122	             	  5.100e-001 	
        57.183	  5.070e-003 	             	
        57.186	             	  5.100e-001 	
        57.247	  4.930e-003 	             	
        57.250	             	  5.110e-001 	
        57.311	  4.890e-003 	             	
        57.314	             	  5.100e-001 	
        57.375	  4.840e-003 	             	
        57.378	             	  5.110e-001 	
        57.439	  4.770e-003 	             	
        57.442	             	  5.110e-001 	
        57.503	  4.740e-003 	             	
        57.506	             	  5.100e-001 	
        57.567	  4.690e-003 	             	
        57.570	             	  5.100e-001 	
        57.631	  4.670e-003 	             	
        57.634	             	  5.100e-001 	
        57.695	  4.700e-003 	             	
        57.730	             	  5.110e-001 	
        57.759	  4.670e-003 	             	
        57.794	             	  5.100e-001 	
        57.855	  4.690e-003 	             	
        57.858	             	  5.110e-001 	
        57.919	  4.640e-003 	             	
        57.922	             	  5.110e-001 	
        57.983	  4.640e-003 	             	
        57.986	             	  5.110e-001 	
        58.047	  4.610e-003 	             	
        58.050	             	  5.110e-001 	
        58.111	  4.580e-003 	             	
        58.114	             	  5.110e-001 	
        58.175	  4.570e-003 	             	
        58.178	             	  5.110e-001 	
        58.239	  4.580e-003 	             	
        58.242	             	  5.110e-001 	
        58.303	  4.550e-003 	             	
        58.306	             	  5.110e-001 	
        58.367	  4.530e-003 	             	
        58.370	             	  5.100e-001 	
        58.431	  4.520e-003 	             	
        58.434	             	  5.110e-001 	
        58.495	  4.500e-003 	             	
        58.530	             	  5.110e-001 	
        58.559	  4.460e-003 	             	
        58.594	             	  5.110e-001 	
        58.655	  4.430e-003 	             	
        58.658	             	  5.100e-001 	
        58.719	  4.490e-003 	             	
        58.722	             	  5.100e-001 	
        58.783	  4.480e-003 	             	
        58.786	             	  5.100e-001 	
        58.847	  4.470e-003 	             	
        58.850	             	  5.100e-001 	
        58.911	  4.500e-003 	             	
        58.914	             	  5.100e-001 	
        58.975	  4.570e-003 	             	
        58.978	             	  5.100e-001 	
        59.039	  4.640e-003 	             	
        59.042	             	  5.110e-001 	
        59.103	  4.700e-003 	             	
        59.106	             	  5.110e-001 	
        59.167	  4.780e-003 	             	
        59.170	             	  5.110e-001 	
        59.231	  4.830e-003 	             	
        59.234	             	  5.110e-001 	
        59.295	  4.880e-003 	             	
        59.330	             	  5.110e-001 	
        59.359	  4.960e-003 	             	
        59.394	             	  5.110e-001 	
        59.455	  5.060e-003 	             	
        59.458	             	  5.100e-001 	
        59.519	  5.100e-003 	             	
        59.522	             	  5.110e-001 	
        59.583	  5.200e-003 	             	
        59.586	             	  5.110e-001 	
        59.647	  5.310e-003 	             	
        59.650	             	  5.110e-001 	
        59.711	  5.370e-003 	             	
        59.714	             	  5.110e-001 	
        59.775	  5.400e-003 	             	
        59.778	             	  5.110e-001 	
        59.839	  5.490e-003 	             	
        59.842	             	  5.110e-001 	
        59.903	  5.560e-003 	             	
        59.906	             	  5.110e-001 	
        59.967	  5.640e-003 	             	
        59.970	             	  5.110e-001 	
        60.031	  5.730e-003 	             	
        60.034	             	  5.110e-001 	
        60.095	  5.840e-003 	             	
        60.130	             	  5.110e-001 	
        60.159	  5.900e-003 	             	
        60.194	             	  5.110e-001 	
        60.255	  5.980e-003 	             	
        60.258	             	  5.110e-001 	
        60.319	  6.050e-003 	             	
        60.322	             	  5.110e-001 	
        60.383	  6.080e-003 	             	
        60.386	             	  5.110e-001 	
        60.447	  6.130e-003 	             	
        60.450	             	  5.110e-001 	
        60.511	  6.200e-003 	             	
        60.514	             	  5.100e-001 	
        60.575	  6.250e-003 	             	
        60.578	             	  5.100e-001 	
        60.639	  6.290e-003 	             	
        60.642	             	  5.110e-001 	
        60.703	  6.330e-003 	             	
        60.706	             	  5.100e-001 	
        60.767	  6.360e-003 	             	
        60.770	             	  5.110e-001 	
        60.831	  6.410e-003 	             	
        60.834	             	  5.110e-001 	
        60.895	  6.450e-003 	             	
        60.930	             	  5.110e-001 	
        60.959	  6.460e-003 	             	
        60.994	             	  5.110e-001 	
        61.055	  6.450e-003 	             	
        61.058	             	  5.110e-001 	
        61.119	  6.440e-003 	             	
        61.122	             	  5.110e-001 	
        61.183	  6.330e-003 	             	
        61.186	             	  5.110e-001 	
        61.247	  6.210e-003 	             	
        61.250	             	  5.100e-001 	
        61.311	  6.150e-003 	             	
        61.314	             	  5.100e-001 	
        61.375	  6.110e-003 	             	
        61.378	             	  5.100e-001 	
        61.439	  6.000e-003 	             	
        61.442	             	  5.100e-001 	
        61.503	  5.700e-003 	             	
        61.506	             	  5.110e-001 	
        61.567	  5.620e-003 	             	
        61.570	             	  5.110e-001 	
        61.631	  5.610e-003 	             	
        61.634	             	  5.110e-001 	
        61.695	  5.520e-003 	             	
        61.730	             	  5.110e-001 	
        61.759	  5.530e-003 	             	
        61.794	             	  5.110e-001 	
        61.855	  5.560e-003 	             	
        61.858	             	  5.110e-001 	
        61.919	  5.520e-003 	             	
        61.922	             	  5.110e-001 	
        61.983	  5.500e-003 	             	
        61.986	             	  5.100e-001 	
        62.047	  5.540e-003 	             	
        62.050	             	  5.100e-001 	
        62.111	  5.550e-003 	             	
        62.114	             	  5.100e-001 	
        62.175	  5.550e-003 	             	
        62.178	             	  5.100e-001 	
        62.239	  5.530e-003 	             	
        62.242	             	  5.100e-001 	
        62.303	  5.520e-003 	             	
        62.306	             	  5.100e-001 	
        62.367	  5.490e-003 	             	
        62.370	             	  5.100e-001 	
        62.431	  5.390e-003 	             	
        62.434	             	  5.100e-001 	
        62.495	  5.370e-003 	             	
        62.530	             	  5.100e-001 	
        62.559	  5.340e-003 	             	
        62.594	             	  5.110e-001 	
        62.655	  5.280e-003 	             	
        62.658	             	  5.110e-001 	
        62.719	  5.250e-003 	             	
        62.722	             	  5.110e-001 	
        62.783	  5.290e-003 	             	
        62.786	             	  5.110e-001 	
        62.847	  5.280e-003 	             	
        62.850	             	  5.110e-001 	
        62.911	  5.280e-003 	             	
        62.914	             	  5.110e-001 	
        62.975	  5.340e-003 	             	
        62.978	             	  5.100e-001 	
        63.039	  5.330e-003 	             	
        63.042	             	  5.110e-001 	
        63.103	  5.300e-003 	             	
        63.106	             	  5.110e-001 	
        63.167	  5.260e-003 	             	
        63.170	             	  5.110e-001 	
        63.231	  5.230e-003 	             	
        63.234	             	  5.110e-001 	
        63.295	  5.230e-003 	             	
        63.330	             	  5.110e-001 	
        63.359	  5.190e-003 	             	
        63.394	             	  5.110e-001 	
        63.455	  5.190e-003 	             	
        63.458	             	  5.110e-001 	
        63.519	  5.170e-003 	             	
        63.522	             	  5.110e-001 	
        63.583	  5.200e-003 	             	
        63.586	             	  5.110e-001 	
        63.647	  5.190e-003 	             	
        63.650	             	  5.110e-001 	
        63.711	  5.170e-003 	             	
        63.714	             	  5.110e-001 	
        63.775	  5.120e-003 	             	
        63.778	             	  5.110e-001 	
        63.839	  5.090e-003 	             	
        63.842	             	  5.110e-001 	
        63.903	  5.000e-003 	             	
        63.906	             	  5.110e-001 	
        63.967	  5.010e-003 	             	
        63.970	             	  5.110e-001 	
        64.031	  5.020e-003 	             	
        64.034	             	  5.110e-001 	
        64.095	  5.010e-003 	             	
        64.098	             	  5.100e-001 	
        64.159	  5.020e-003 	             	
        64.194	             	  5.100e-001 	
        64.255	  5.130e-003 	             	
        64.258	             	  5.110e-001 	
        64.319	  5.200e-003 	             	
        64.322	             	  5.110e-001 	
        64.383	  5.200e-003 	             	
        64.386	             	  5.110e-001 	
        64.447	  5.290e-003 	             	
        64.450	             	  5.110e-001 	
        64.511	  5.400e-003 	             	
        64.514	             	  5.100e-001 	
        64.575	  5.510e-003 	             	
        64.578	             	  5.100e-001 	
        64.639	  5.590e-003 	             	
        64.642	             	  5.100e-001 	
        64.703	  5.710e-003 	             	
        64.706	             	  5.100e-001 	
        64.767	  5.830e-003 	             	
        64.770	             	  5.100e-001 	
        64.831	  5.880e-003 	             	
        64.834	             	  5.100e-001 	
        64.895	  5.930e-003 	             	
        64.930	             	  5.100e-001 	
        64.959	  6.000e-003 	             	
        64.994	             	  5.100e-001 	
        65.055	  6.110e-003 	             	
        65.058	             	  5.100e-001 	
        65.119	  6.240e-003 	             	
        65.122	             	  5.100e-001 	
        65.183	  6.340e-003 	             	
        65.186	             	  5.100e-001 	
        65.247	  6.460e-003 	             	
        65.250	             	  5.100e-001 	
        65.311	  6.540e-003 	             	
        65.314	             	  5.100e-001 	
        65.375	  6.620e-003 	             	
        65.378	             	  5.110e-001 	
        65.439	  6.660e-003 	             	
        65.442	             	  5.110e-001 	
        65.503	  6.630e-003 	             	
        65.506	             	  5.110e-001 	
        65.567	  6.600e-003 	             	
        65.570	             	  5.110e-001 	
        65.631	  6.630e-003 	             	
        65.634	             	  5.110e-001 	
        65.695	  6.630e-003 	             	
        65.698	             	  5.100e-001 	
        65.759	  6.600e-003 	             	
        65.794	             	  5.100e-001 	
        65.855	  6.600e-003 	             	
        65.858	             	  5.100e-001 	
        65.919	  6.620e-003 	             	
        65.922	             	  5.100e-001 	
        65.983	  6.580e-003 	             	
        65.986	             	  5.110e-001 	
        66.047	  6.600e-003 	             	
        66.050	             	  5.110e-001 	
        66.111	  6.560e-003 	             	
        66.114	             	  5.110e-001 	
        66.175	  6.540e-003 	             	
        66.178	             	  5.100e-001 	
        66.239	  6.470e-003 	             	
        66.242	             	  5.100e-001 	
        66.303	  6.420e-003 	             	
        66.306	             	  5.100e-001 	
        66.367	  6.370e-003 	             	
        66.370	             	  5.100e-001 	
        66.431	  6.300e-003 	             	
        66.434	             	  5.100e-001 	
        66.495	  6.190e-003 	             	
        66.498	             	  5.110e-001 	
        66.559	  6.160e-003 	             	
        66.594	             	  5.110e-001 	
        66.655	  6.150e-003 	             	
        66.658	             	  5.110e-001 	
        66.719	  6.100e-003 	             	
        66.722	             	  5.110e-001 	
        66.783	  6.070e-003 	             	
        66.786	             	  5.110e-001 	
        66.847	  6.020e-003 	             	
        66.850	             	  5.110e-001 	
        66.911	  5.980e-003 	             	
        66.914	             	  5.110e-001 	
        66.975	  5.980e-003 	             	
        66.978	             	  5.110e-001 	
        67.039	  6.020e-003 	             	
        67.042	             	  5.110e-001 	
        67.103	  6.040e-003 	             	
        67.106	             	  5.110e-001 	
        67.167	  6.060e-003 	             	
        67.170	             	  5.110e-001 	
        67.231	  6.110e-003 	             	
        67.234	             	  5.110e-001 	
        67.295	  6.110e-003 	             	
        67.297	             	  5.110e-001 	
        67.360	  6.140e-003 	             	
        67.394	             	  5.110e-001 	
        67.456	  6.120e-003 	             	
        67.459	             	  5.110e-001 	
        67.520	  6.140e-003 	             	
        67.523	             	  5.100e-001 	
        67.584	  6.160e-003 	             	
        67.586	             	  5.100e-001 	
        67.648	  6.190e-003 	             	
        67.651	             	  5.100e-001 	
        67.712	  6.190e-003 	             	
        67.715	             	  5.100e-001 	
        67.776	  6.250e-003 	             	
        67.779	             	  5.100e-001 	
        67.840	  6.270e-003 	             	
        67.843	             	  5.100e-001 	
        67.904	  6.250e-003 	             	
        67.907	             	  5.100e-001 	
        67.968	  6.280e-003 	             	
        67.971	             	  5.100e-001 	
        68.032	  6.280e-003 	             	
        68.035	             	  5.100e-001 	
        68.096	  6.180e-003 	             	
        68.099	             	  5.100e-001 	
        68.160	  6.140e-003 	             	
        68.194	             	  5.100e-001 	
        68.256	  6.100e-003 	             	
        68.259	             	  5.100e-001 	
        68.320	  6.080e-003 	             	
        68.322	             	  5.100e-001 	
        68.384	  6.090e-003 	             	
        68.386	             	  5.100e-001 	
        68.448	  6.050e-003 	             	
        68.450	             	  5.100e-001 	
        68.512	  6.010e-003 	             	
        68.514	             	  5.100e-001 	
        68.576	  6.020e-003 	             	
        68.578	             	  5.100e-001 	
        68.640	  6.060e-003 	             	
        68.642	             	  5.100e-001 	
        68.704	  6.020e-003 	             	
        68.706	             	  5.100e-001 	
        68.768	  6.020e-003 	             	
        68.770	             	  5.110e-001 	
        68.832	  5.970e-003 	             	
        68.834	             	  5.100e-001 	
        68.896	  5.960e-003 	             	
        68.899	             	  5.100e-001 	
        68.960	  5.890e-003 	             	
        68.994	             	  5.100e-001 	
        69.024	  5.870e-003 	             	
        69.058	             	  5.100e-001 	
        69.120	  5.820e-003 	             	
        69.122	             	  5.100e-001 	
        69.184	  5.790e-003 	             	
        69.186	             	  5.100e-001 	
        69.248	  5.700e-003 	             	
        69.250	             	  5.100e-001 	
        69.312	  5.650e-003 	             	
        69.314	             	  5.100e-001 	
        69.376	  5.640e-003 	             	
        69.378	             	  5.100e-001 	
        69.440	  5.660e-003 	             	
        69.442	             	  5.100e-001 	
        69.504	  5.620e-003 	             	
        69.506	             	  5.100e-001 	
        69.568	  5.610e-003 	             	
        69.570	             	  5.110e-001 	
        69.632	  5.600e-003 	             	
        69.635	             	  5.110e-001 	
        69.696	  5.620e-003 	             	
        69.698	             	  5.110e-001 	
        69.760	  5.630e-003 	             	
        69.794	             	  5.110e-001 	
        69.824	  5.670e-003 	             	
        69.858	             	  5.110e-001 	
        69.920	  5.680e-003 	             	
        69.922	             	  5.110e-001 	
        69.984	  5.760e-003 	             	
        69.986	             	  5.110e-001 	
        70.047	  5.840e-003 	             	
        70.050	             	  5.110e-001 	
        70.112	  5.920e-003 	             	
        70.114	             	  5.110e-001 	
        70.176	  6.000e-003 	             	
        70.178	             	  5.110e-001 	
        70.239	  6.070e-003 	             	
        70.242	             	  5.100e-001 	
        70.304	  6.160e-003 	             	
        70.306	             	  5.100e-001 	
        70.368	  6.240e-003 	             	
        70.370	             	  5.100e-001 	
        70.432	  6.340e-003 	             	
        70.434	             	  5.100e-001 	
        70.496	  6.420e-003 	             	
        70.498	             	  5.100e-001 	
        70.560	  6.480e-003 	             	
        70.594	             	  5.100e-001 	
        70.623	  6.530e-003 	             	
        70.658	             	  5.100e-001 	
        70.720	  6.590e-003 	             	
        70.722	             	  5.100e-001 	
        70.784	  6.660e-003 	             	
        70.786	             	  5.100e-001 	
        70.847	  6.670e-003 	             	
        70.850	             	  5.100e-001 	
        70.912	  6.730e-003 	             	
        70.914	             	  5.100e-001 	
        70.975	  6.750e-003 	             	
        70.978	             	  5.100e-001 	
        71.039	  6.780e-003 	             	
        71.042	             	  5.100e-001 	
        71.103	  6.770e-003 	             	
        71.106	             	  5.100e-001 	
        71.167	  6.780e-003 	             	
        71.170	             	  5.100e-001 	
        71.231	  6.790e-003 	             	
        71.234	             	  5.110e-001 	
        71.296	  6.810e-003 	             	
        71.298	             	  5.110e-001 	
        71.360	  6.830e-003 	             	
        71.394	             	  5.110e-001 	
        71.423	  6.830e-003 	             	
        71.458	             	  5.110e-001 	
        71.520	  6.810e-003 	             	
        71.522	             	  5.110e-001 	
        71.583	  6.840e-003 	             	
        71.586	             	  5.110e-001 	
        71.647	  6.830e-003 	             	
        71.650	             	  5.110e-001 	
        71.712	  6.840e-003 	             	
        71.714	             	  5.100e-001 	
        71.775	  6.810e-003 	             	
        71.778	             	  5.100e-001 	
        71.839	  6.820e-003 	             	
        71.842	             	  5.110e-001 	
        71.903	  6.790e-003 	             	
        71.906	             	  5.110e-001 	
        71.967	  6.790e-003 	             	
        71.970	             	  5.110e-001 	
        72.031	  6.750e-003 	             	
        72.034	             	  5.110e-001 	
        72.095	  6.780e-003 	             	
        72.098	             	  5.110e-001 	
        72.159	  6.750e-003 	             	
        72.194	             	  5.110e-001 	
        72.223	  6.770e-003 	             	
        72.258	             	  5.110e-001 	
        72.319	  6.750e-003 	             	
        72.322	             	  5.110e-001 	
        72.383	  6.720e-003 	             	
        72.386	             	  5.100e-001 	
        72.447	  6.710e-003 	             	
        72.450	             	  5.100e-001 	
        72.511	  6.610e-003 	             	
        72.514	             	  5.100e-001 	
        72.575	  6.640e-003 	             	
        72.578	             	  5.100e-001 	
        72.639	  6.630e-003 	             	
        72.642	             	  5.100e-001 	
        72.703	  6.640e-003 	             	
        72.706	             	  5.100e-001 	
        72.767	  6.650e-003 	             	
        72.770	             	  5.100e-001 	
        72.831	  6.670e-003 	             	
        72.834	             	  5.100e-001 	
        72.895	  6.640e-003 	             	
        72.898	             	  5.100e-001 	
        72.959	  6.630e-003 	             	
        72.994	             	  5.100e-001 	
        73.023	  6.640e-003 	             	
        73.058	             	  5.100e-001 	
        73.119	  6.620e-003 	             	
        73.122	             	  5.110e-001 	
        73.183	  6.590e-003 	             	
        73.186	             	  5.100e-001 	
        73.247	  6.590e-003 	             	
        73.250	             	  5.100e-001 	
        73.311	  6.560e-003 	             	
        73.314	             	  5.100e-001 	
        73.375	  6.570e-003 	             	
        73.378	             	  5.100e-001 	
        73.439	  6.550e-003 	             	
        73.442	             	  5.100e-001 	
        73.503	  6.540e-003 	             	
        73.506	             	  5.100e-001 	
        73.567	  6.550e-003 	             	
        73.570	             	  5.100e-001 	
        73.631	  6.550e-003 	             	
        73.634	             	  5.100e-001 	
        73.695	  6.540e-003 	             	
        73.698	             	  5.100e-001 	
        73.759	  6.570e-003 	             	
        73.794	             	  5.100e-001 	
        73.823	  6.580e-003 	             	
        73.858	             	  5.100e-001 	
        73.919	  6.610e-003 	             	
        73.922	             	  5.100e-001 	
        73.983	  6.600e-003 	             	
        73.986	             	  5.100e-001 	
        74.047	  6.610e-003 	             	
        74.050	             	  5.100e-001 	
        74.111	  6.620e-003 	             	
        74.114	             	  5.100e-001 	
        74.175	  6.600e-003 	             	
        74.178	             	  5.100e-001 	
        74.239	  6.620e-003 	             	
        74.242	             	  5.100e-001 	
        74.303	  6.610e-003 	             	
        74.306	             	  5.100e-001 	
        74.367	  6.600e-003 	             	
        74.370	             	  5.100e-001 	
        74.431	  6.590e-003 	             	
        74.434	             	  5.100e-001 	
        74.495	  6.580e-003 	             	
        74.498	             	  5.100e-001 	
        74.559	  6.570e-003 	             	
        74.594	             	  5.100e-001 	
        74.623	  6.610e-003 	             	
        74.658	             	  5.100e-001 	
        74.719	  6.620e-003 	             	
        74.722	             	  5.100e-001 	
        74.783	  6.630e-003 	             	
        74.786	             	  5.100e-001 	
        74.847	  6.670e-003 	             	
        74.850	             	  5.100e-001 	
        74.911	  6.700e-003 	             	
        74.914	             	  5.100e-001 	
        74.975	  6.750e-003 	             	
        74.978	             	  5.100e-001 	
        75.039	  6.780e-003 	             	
        75.042	             	  5.100e-001 	
        75.103	  6.810e-003 	             	
        75.107	             	  5.100e-001 	
        75.167	  6.860e-003 	             	
        75.170	             	  5.100e-001 	
        75.231	  6.860e-003 	             	
        75.234	             	  5.100e-001 	
        75.295	  6.850e-003 	             	
        75.298	             	  5.100e-001 	
        75.359	  6.850e-003 	             	
        75.394	             	  5.100e-001 	
        75.423	  6.900e-003 	             	
        75.458	             	  5.100e-001 	
        75.519	  6.890e-003 	             	
        75.522	             	  5.100e-001 	
        75.583	  6.880e-003 	             	
        75.586	             	  5.100e-001 	
        75.647	  6.860e-003 	             	
        75.650	             	  5.100e-001 	
        75.711	  6.890e-003 	             	
        75.714	             	  5.100e-001 	
        75.775	  6.910e-003 	             	
        75.778	             	  5.100e-001 	
        75.839	  6.870e-003 	             	
        75.842	             	  5.100e-001 	
        75.903	  6.890e-003 	             	
        75.906	             	  5.100e-001 	
        75.967	  6.870e-003 	             	
        75.970	             	  5.100e-001 	
        76.031	  6.870e-003 	             	
        76.034	             	  5.100e-001 	
        76.095	  6.890e-003 	             	
        76.098	             	  5.100e-001 	
        76.159	  6.900e-003 	             	
        76.162	             	  5.100e-001 	
        76.223	  6.870e-003 	             	
        76.258	             	  5.100e-001 	
        76.319	  6.880e-003 	             	
        76.322	             	  5.100e-001 	
        76.383	  6.900e-003 	             	
        76.386	             	  5.100e-001 	
        76.447	  6.860e-003 	             	
        76.450	             	  5.100e-001 	
        76.511	  6.850e-003 	             	
        76.514	             	  5.100e-001 	
        76.575	  6.820e-003 	             	
        76.578	             	  5.100e-001 	
        76.639	  6.820e-003 	             	
        76.642	             	  5.100e-001 	
        76.703	  6.800e-003 	             	
        76.706	             	  5.100e-001 	
        76.767	  6.790e-003 	             	
        76.770	             	  5.110e-001 	
        76.831	  6.770e-003 	             	
        76.834	             	  5.100e-001 	
        76.895	  6.790e-003 	             	
        76.898	             	  5.100e-001 	
        76.959	  6.840e-003 	             	
        76.962	             	  5.100e-001 	
        77.023	  6.840e-003 	             	
        77.058	             	  5.100e-001 	
        77.119	  6.820e-003 	             	
        77.122	             	  5.100e-001 	
        77.183	  6.830e-003 	             	
        77.186	             	  5.100e-001 	
        77.247	  6.820e-003 	             	
        77.250	             	  5.100e-001 	
        77.311	  6.820e-003 	             	
        77.314	             	  5.100e-001 	
        77.375	  6.820e-003 	             	
        77.378	             	  5.100e-001 	
        77.439	  6.830e-003 	             	
        77.442	             	  5.100e-001 	
        77.503	  6.830e-003 	             	
        77.506	             	  5.100e-001 	
        77.567	  6.810e-003 	             	
        77.570	             	  5.100e-001 	
        77.631	  6.810e-003 	             	
        77.634	             	  5.100e-001 	
        77.695	  6.790e-003 	             	
        77.698	             	  5.100e-001 	
        77.759	  6.760e-003 	             	
        77.762	             	  5.100e-001 	
        77.823	  6.770e-003 	             	
        77.858	             	  5.100e-001 	
        77.919	  6.780e-003 	             	
        77.922	             	  5.100e-001 	
        77.983	  6.750e-003 	             	
        77.986	             	  5.100e-001 	
        78.047	  6.730e-003 	             	
        78.050	             	  5.100e-001 	
        78.111	  6.780e-003 	             	
        78.114	             	  5.100e-001 	
        78.175	  6.800e-003 	             	
        78.178	             	  5.100e-001 	
        78.239	  6.800e-003 	             	
        78.242	             	  5.100e-001 	
        78.303	  6.820e-003 	             	
        78.306	             	  5.100e-001 	
        78.367	  6.810e-003 	             	
        78.370	             	  5.100e-001 	
        78.431	  6.830e-003 	             	
        78.434	             	  5.100e-001 	
        78.495	  6.860e-003 	             	
        78.498	             	  5.100e-001 	
        78.559	  6.860e-003 	             	
        78.562	             	  5.100e-001 	
        78.623	  6.860e-003 	             	
        78.658	             	  5.100e-001 	
        78.719	  6.860e-003 	             	
        78.722	             	  5.100e-001 	
        78.783	  6.850e-003 	             	
        78.786	             	  5.100e-001 	
        78.847	  6.900e-003 	             	
        78.850	             	  5.100e-001 	
        78.911	  6.880e-003 	             	
        78.914	             	  5.100e-001 	
        78.975	  6.870e-003 	             	
        78.978	             	  5.100e-001 	
        79.039	  6.880e-003 	             	
        79.042	             	  5.100e-001 	
        79.103	  6.870e-003 	             	
        79.106	             	  5.100e-001 	
        79.167	  6.900e-003 	             	
        79.170	             	  5.100e-001 	
        79.231	  6.870e-003 	             	
        79.234	             	  5.100e-001 	
        79.295	  6.880e-003 	             	
        79.298	             	  5.100e-001 	
        79.359	  6.860e-003 	             	
        79.362	             	  5.100e-001 	
        79.423	  6.860e-003 	             	
        79.458	             	  5.100e-001 	
        79.519	  6.870e-003 	             	
        79.522	             	  5.100e-001 	
        79.583	  6.880e-003 	             	
        79.586	             	  5.100e-001 	
        79.647	  6.880e-003 	             	
        79.650	             	  5.100e-001 	
        79.711	  6.860e-003 	             	
        79.714	             	  5.100e-001 	
        79.775	  6.870e-003 	             	
        79.778	             	  5.100e-001 	
        79.839	  6.870e-003 	             	
        79.842	             	  5.100e-001 	
        79.903	  6.850e-003 	             	
        79.906	             	  5.100e-001 	
        79.967	  6.840e-003 	             	
        79.970	             	  5.100e-001 	
        80.031	  6.830e-003 	             	
        80.034	             	  5.100e-001 	
        80.095	  6.830e-003 	             	
        80.098	             	  5.100e-001 	
        80.159	  6.810e-003 	             	
        80.162	             	  5.100e-001 	
        80.223	  6.820e-003 	             	
        80.258	             	  5.100e-001 	
        80.319	  6.810e-003 	             	
        80.322	             	  5.100e-001 	
        80.383	  6.770e-003 	             	
        80.386	             	  5.100e-001 	
        80.447	  6.750e-003 	             	
        80.450	             	  5.100e-001 	
        80.511	  6.700e-003 	             	
        80.514	             	  5.100e-001 	
        80.575	  6.650e-003 	             	
        80.578	             	  5.100e-001 	
        80.639	  6.630e-003 	             	
        80.642	             	  5.100e-001 	
        80.703	  6.590e-003 	             	
        80.706	             	  5.100e-001 	
        80.767	  6.570e-003 	             	
        80.770	             	  5.100e-001 	
        80.831	  6.590e-003 	             	
        80.834	             	  5.100e-001 	
        80.895	  6.660e-003 	             	
        80.898	             	  5.100e-001 	
        80.959	  6.710e-003 	             	
        80.962	             	  5.100e-001 	
        81.023	  6.760e-003 	             	
        81.058	             	  5.100e-001 	
        81.119	  6.790e-003 	             	
        81.122	             	  5.100e-001 	
        81.183	  6.860e-003 	             	
        81.186	             	  5.100e-001 	
        81.247	  6.900e-003 	             	
        81.250	             	  5.100e-001 	
        81.311	  6.900e-003 	             	
        81.314	             	  5.100e-001 	
        81.375	  6.930e-003 	             	
        81.378	             	  5.100e-001 	
        81.439	  6.920e-003 	             	
        81.442	             	  5.100e-001 	
        81.503	  6.970e-003 	             	
        81.506	             	  5.100e-001 	
        81.567	  6.980e-003 	             	
        81.570	             	  5.100e-001 	
        81.631	  6.990e-003 	             	
        81.634	             	  5.100e-001 	
        81.695	  7.000e-003 	             	
        81.698	             	  5.100e-001 	
        81.759	  7.010e-003 	             	
        81.762	             	  5.100e-001 	
        81.823	  7.040e-003 	             	
        81.858	             	  5.100e-001 	
        81.919	  6.990e-003 	             	
        81.922	             	  5.100e-001 	
        81.983	  7.030e-003 	             	
        81.986	             	  5.100e-001 	
        82.047	  7.070e-003 	             	
        82.050	             	  5.100e-001 	
        82.111	  7.050e-003 	             	
        82.114	             	  5.100e-001 	
        82.175	  7.050e-003 	             	
        82.178	             	  5.100e-001 	
        82.239	  7.080e-003 	             	
        82.242	             	  5.100e-001 	
        82.303	  7.050e-003 	             	
        82.306	             	  5.100e-001 	
        82.367	  7.040e-003 	             	
        82.370	             	  5.100e-001 	
        82.431	  7.040e-003 	             	
        82.434	             	  5.100e-001 	
        82.495	  7.020e-003 	             	
        82.498	             	  5.100e-001 	
        82.559	  7.060e-003 	             	
        82.562	             	  5.100e-001 	
        82.623	  7.060e-003 	             	
        82.658	             	  5.100e-001 	
        82.719	  7.090e-003 	             	
        82.722	             	  5.100e-001 	
        82.783	  7.090e-003 	             	
        82.786	             	  5.100e-001 	
        82.847	  7.110e-003 	             	
        82.850	             	  5.100e-001 	
        82.911	  7.120e-003 	             	
        82.914	             	  5.100e-001 	
        82.975	  7.100e-003 	             	
        82.978	             	  5.100e-001 	
        83.039	  7.130e-003 	             	
        83.042	             	  5.100e-001 	
        83.103	  7.140e-003 	             	
        83.106	             	  5.100e-001 	
        83.167	  7.110e-003 	             	
        83.170	             	  5.100e-001 	
        83.231	  7.110e-003 	             	
        83.234	             	  5.100e-001 	
        83.295	  7.130e-003 	             	
        83.298	             	  5.100e-001 	
        83.359	  7.130e-003 	             	
        83.362	             	  5.100e-001 	
        83.423	  7.110e-003 	             	
        83.458	             	  5.100e-001 	
        83.487	  7.130e-003 	             	
        83.522	             	  5.100e-001 	
        83.583	  7.150e-003 	             	
        83.586	             	  5.100e-001 	
        83.647	  7.130e-003 	             	
        83.650	             	  5.100e-001 	
        83.711	  7.150e-003 	             	
        83.714	             	  5.100e-001 	
        83.775	  7.160e-003 	             	
        83.778	             	  5.100e-001 	
        83.839	  7.160e-003 	             	
        83.842	             	  5.100e-001 	
        83.903	  7.150e-003 	             	
        83.906	             	  5.100e-001 	
        83.967	  7.140e-003 	             	
        83.970	             	  5.100e-001 	
        84.031	  7.190e-003 	             	
        84.034	             	  5.100e-001 	
        84.095	  7.170e-003 	             	
        84.098	             	  5.100e-001 	
        84.159	  7.170e-003 	             	
        84.162	             	  5.100e-001 	
        84.223	  7.140e-003 	             	
        84.258	             	  5.100e-001 	
        84.287	  7.170e-003 	             	
        84.322	             	  5.100e-001 	
        84.383	  7.170e-003 	             	
        84.386	             	  5.100e-001 	
        84.447	  7.180e-003 	             	
        84.450	             	  5.100e-001 	
        84.511	  7.180e-003 	             	
        84.514	             	  5.100e-001 	
        84.575	  7.190e-003 	             	
        84.578	             	  5.100e-001 	
        84.639	  7.160e-003 	             	
        84.642	             	  5.100e-001 	
        84.703	  7.180e-003 	             	
        84.706	             	  5.100e-001 	
        84.767	  7.170e-003 	             	
        84.770	             	  5.100e-001 	
        84.831	  7.180e-003 	             	
        84.834	             	  5.100e-001 	
        84.896	  7.180e-003 	             	
        84.899	             	  5.100e-001 	
        84.960	  7.200e-003 	             	
        84.963	             	  5.100e-001 	
        85.024	  7.180e-003 	             	
        85.059	             	  5.100e-001 	
        85.088	  7.180e-003 	             	
        85.123	             	  5.100e-001 	
        85.184	  7.150e-003 	             	
        85.186	             	  5.100e-001 	
        85.248	  7.170e-003 	             	
        85.251	             	  5.100e-001 	
        85.312	  7.190e-003 	             	
        85.314	             	  5.100e-001 	
        85.376	  7.180e-003 	             	
        85.378	             	  5.100e-001 	
        85.440	  7.220e-003 	             	
        85.442	             	  5.100e-001 	
        85.504	  7.210e-003 	             	
        85.507	             	  5.100e-001 	
        85.568	  7.190e-003 	             	
        85.570	             	  5.100e-001 	
        85.632	  7.230e-003 	             	
        85.635	             	  5.100e-001 	
        85.696	  7.210e-003 	             	
        85.699	             	  5.100e-001 	
        85.760	  7.250e-003 	             	
        85.762	             	  5.100e-001 	
        85.824	  7.230e-003 	             	
        85.859	             	  5.100e-001 	
        85.888	  7.230e-003 	             	
        85.922	             	  5.100e-001 	
        85.984	  7.250e-003 	             	
        85.986	             	  5.100e-001 	
        86.048	  7.300e-003 	             	
        86.050	             	  5.100e-001 	
        86.112	  7.310e-003 	             	
        86.114	             	  5.100e-001 	
        86.176	  7.310e-003 	             	
        86.179	             	  5.100e-001 	
        86.240	  7.320e-003 	             	
        86.242	             	  5.100e-001 	
        86.304	  7.330e-003 	             	
        86.306	             	  5.100e-001 	
        86.368	  7.330e-003 	             	
        86.370	             	  5.100e-001 	
        86.432	  7.330e-003 	             	
        86.434	             	  5.100e-001 	
        86.496	  7.310e-003 	             	
        86.498	             	  5.100e-001 	
        86.560	  7.320e-003 	             	
        86.562	             	  5.100e-001 	
        86.624	  7.290e-003 	             	
        86.658	             	  5.100e-001 	
        86.688	  7.300e-003 	             	
        86.722	             	  5.100e-001 	
        86.784	  7.300e-003 	             	
        86.786	             	  5.100e-001 	
        86.848	  7.310e-003 	             	
        86.850	             	  5.100e-001 	
        86.912	  7.300e-003 	             	
        86.914	             	  5.100e-001 	
        86.975	  7.350e-003 	             	
        86.978	             	  5.100e-001 	
        87.040	  7.350e-003 	             	
        87.042	             	  5.100e-001 	
        87.103	  7.360e-003 	             	
        87.106	             	  5.100e-001 	
        87.168	  7.460e-003 	             	
        87.170	             	  5.100e-001 	
        87.232	  7.510e-003 	             	
        87.234	             	  5.100e-001 	
        87.296	  7.470e-003 	             	
        87.298	             	  5.100e-001 	
        87.360	  7.500e-003 	             	
        87.362	             	  5.100e-001 	
        87.423	  7.510e-003 	             	
        87.458	             	  5.100e-001 	
        87.487	  7.470e-003 	             	
        87.522	             	  5.100e-001 	
        87.584	  7.420e-003 	             	
        87.586	             	  5.100e-001 	
        87.647	  7.440e-003 	             	
        87.650	             	  5.100e-001 	
        87.712	  7.410e-003 	             	
        87.714	             	  5.100e-001 	
        87.775	  7.430e-003 	             	
        87.778	             	  5.100e-001 	
        87.839	  7.410e-003 	             	
        87.842	             	  5.100e-001 	
        87.903	  7.410e-003 	             	
        87.906	             	  5.100e-001 	
        87.967	  7.400e-003 	             	
        87.970	             	  5.100e-001 	
        88.032	  7.390e-003 	             	
        88.034	             	  5.100e-001 	
        88.095	  7.380e-003 	             	
        88.098	             	  5.100e-001 	
        88.160	  7.380e-003 	             	
        88.162	             	  5.100e-001 	
        88.224	  7.390e-003 	             	
        88.258	             	  5.100e-001 	
        88.287	  7.400e-003 	             	
        88.322	             	  5.100e-001 	
        88.383	  7.390e-003 	             	
        88.386	             	  5.100e-001 	
        88.447	  7.420e-003 	             	
        88.450	             	  5.100e-001 	
        88.512	  7.450e-003 	             	
        88.514	             	  5.100e-001 	
        88.575	  7.480e-003 	             	
        88.578	             	  5.100e-001 	
        88.639	  7.450e-003 	             	
        88.642	             	  5.100e-001 	
        88.704	  7.460e-003 	             	
        88.706	             	  5.100e-001 	
        88.767	  7.450e-003 	             	
        88.770	             	  5.100e-001 	
        88.831	  7.460e-003 	             	
        88.834	             	  5.100e-001 	
        88.895	  7.420e-003 	             	
        88.898	             	  5.100e-001 	
        88.959	  7.440e-003 	             	
        88.962	             	  5.100e-001 	
        89.023	  7.440e-003 	             	
        89.058	             	  5.100e-001 	
        89.087	  7.410e-003 	             	
        89.122	             	  5.100e-001 	
        89.183	  7.410e-003 	             	
        89.186	             	  5.100e-001 	
        89.247	  7.410e-003 	             	
        89.250	             	  5.100e-001 	
        89.311	  7.400e-003 	             	
        89.314	             	  5.100e-001 	
        89.375	  7.410e-003 	             	
        89.378	             	  5.100e-001 	
        89.439	  7.410e-003 	             	
        89.442	             	  5.100e-001 	
        89.503	  7.410e-003 	             	
        89.506	             	  5.100e-001 	
        89.567	  7.400e-003 	             	
        89.570	             	  5.100e-001 	
        89.631	  7.380e-003 	             	
        89.634	             	  5.100e-001 	
        89.695	  7.390e-003 	             	
        89.698	             	  5.100e-001 	
        89.759	  7.380e-003 	             	
        89.762	             	  5.100e-001 	
        89.823	  7.420e-003 	             	
        89.826	             	  5.100e-001 	
        89.887	  7.380e-003 	             	
        89.922	             	  5.100e-001 	
        89.983	  7.390e-003 	             	
        89.986	             	  5.100e-001 	
        90.047	  7.410e-003 	             	
        90.050	             	  5.100e-001 	
        90.111	  7.380e-003 	             	
        90.114	             	  5.100e-001 	
        90.175	  7.380e-003 	             	
        90.178	             	  5.100e-001 	
        90.239	  7.340e-003 	             	
        90.242	             	  5.100e-001 	
        90.303	  7.370e-003 	             	
        90.306	             	  5.100e-001 	
        90.367	  7.340e-003 	             	
        90.370	             	  5.100e-001 	
        90.431	  7.380e-003 	             	
        90.434	             	  5.100e-001 	
        90.495	  7.380e-003 	             	
        90.498	             	  5.100e-001 	
        90.559	  7.390e-003 	             	
        90.562	             	  5.100e-001 	
        90.624	  7.370e-003 	             	
        90.626	             	  5.100e-001 	
        90.687	  7.380e-003 	             	
        90.722	             	  5.100e-001 	
        90.783	  7.390e-003 	             	
        90.786	             	  5.110e-001 	
        90.847	  7.390e-003 	             	
        90.850	             	  5.110e-001 	
        90.911	  7.380e-003 	             	
        90.914	             	  5.110e-001 	
        90.975	  7.400e-003 	             	
        90.978	             	  5.100e-001 	
        91.039	  7.400e-003 	             	
        91.042	             	  5.100e-001 	
        91.103	  7.390e-003 	             	
        91.106	             	  5.100e-001 	
        91.167	  7.440e-003 	             	
        91.170	             	  5.100e-001 	
        91.231	  7.430e-003 	             	
        91.234	             	  5.100e-001 	
        91.295	  7.420e-003 	             	
        91.298	             	  5.100e-001 	
        91.359	  7.440e-003 	             	
        91.362	             	  5.100e-001 	
        91.423	  7.490e-003 	             	
        91.426	             	  5.100e-001 	
        91.487	  7.500e-003 	             	
        91.522	             	  5.100e-001 	
        91.583	  7.460e-003 	             	
        91.586	             	  5.100e-001 	
        91.647	  7.470e-003 	             	
        91.650	             	  5.100e-001 	
        91.711	  7.470e-003 	             	
        91.714	             	  5.100e-001 	
        91.775	  7.490e-003 	             	
        91.778	             	  5.100e-001 	
        91.839	  7.470e-003 	             	
        91.842	             	  5.100e-001 	
        91.903	  7.480e-003 	             	
        91.906	             	  5.100e-001 	
        91.967	  7.460e-003 	             	
        91.970	             	  5.100e-001 	
        92.031	  7.460e-003 	             	
        92.034	             	  5.100e-001 	
        92.095	  7.470e-003 	             	
        92.098	             	  5.100e-001 	
        92.159	  7.460e-003 	             	
        92.162	             	  5.100e-001 	
        92.223	  7.440e-003 	             	
        92.226	             	  5.100e-001 	
        92.287	  7.420e-003 	             	
        92.322	             	  5.100e-001 	
        92.383	  7.450e-003 	             	
        92.386	             	  5.100e-001 	
        92.447	  7.420e-003 	             	
        92.450	             	  5.100e-001 	
        92.511	  7.430e-003 	             	
        92.514	             	  5.100e-001 	
        92.575	  7.410e-003 	             	
        92.578	             	  5.100e-001 	
        92.639	  7.410e-003 	             	
        92.642	             	  5.100e-001 	
        92.703	  7.390e-003 	             	
        92.706	             	  5.100e-001 	
        92.767	  7.380e-003 	             	
        92.770	             	  5.100e-001 	
        92.831	  7.400e-003 	             	
        92.834	             	  5.100e-001 	
        92.895	  7.360e-003 	             	
        92.898	             	  5.100e-001 	
        92.959	  7.360e-003 	             	
        92.962	             	  5.100e-001 	
        93.023	  7.370e-003 	             	
        93.026	             	  5.100e-001 	
        93.087	  7.370e-003 	             	
        93.122	             	  5.100e-001 	
        93.183	  7.320e-003 	             	
        93.186	             	  5.100e-001 	
        93.247	  7.360e-003 	             	
        93.250	             	  5.100e-001 	
        93.311	  7.340e-003 	             	
        93.314	             	  5.110e-001 	
        93.375	  7.370e-003 	             	
        93.378	             	  5.110e-001 	
        93.439	  7.350e-003 	             	
        93.442	             	  5.110e-001 	
        93.503	  7.360e-003 	             	
        93.506	             	  5.100e-001 	
        93.567	  7.370e-003 	             	
        93.570	             	  5.100e-001 	
        93.631	  7.360e-003 	             	
        93.634	             	  5.100e-001 	
        93.695	  7.380e-003 	             	
        93.698	             	  5.100e-001 	
        93.759	  7.380e-003 	             	
        93.762	             	  5.100e-001 	
        93.823	  7.380e-003 	             	
        93.826	             	  5.100e-001 	
        93.887	  7.400e-003 	             	
        93.922	             	  5.100e-001 	
        93.983	  7.370e-003 	             	
        93.986	             	  5.100e-001 	
        94.047	  7.380e-003 	             	
        94.050	             	  5.100e-001 	
        94.111	  7.380e-003 	             	
        94.114	             	  5.100e-001 	
        94.175	  7.420e-003 	             	
        94.178	             	  5.100e-001 	
        94.239	  7.440e-003 	             	
        94.242	             	  5.100e-001 	
        94.303	  7.440e-003 	             	
        94.306	             	  5.100e-001 	
        94.367	  7.400e-003 	             	
        94.370	             	  5.100e-001 	
        94.431	  7.430e-003 	             	
        94.434	             	  5.100e-001 	
        94.495	  7.420e-003 	             	
        94.498	             	  5.100e-001 	
        94.559	  7.450e-003 	             	
        94.562	             	  5.110e-001 	
        94.623	  7.400e-003 	             	
        94.626	             	  5.100e-001 	
        94.687	  7.390e-003 	             	
        94.722	             	  5.100e-001 	
        94.783	  7.410e-003 	             	
        94.786	             	  5.100e-001 	
        94.847	  7.400e-003 	             	
        94.850	             	  5.100e-001 	
        94.911	  7.410e-003 	             	
        94.914	             	  5.110e-001 	
        94.975	  7.420e-003 	             	
        94.978	             	  5.110e-001 	
        95.039	  7.390e-003 	             	
        95.042	             	  5.110e-001 	
        95.103	  7.470e-003 	             	
        95.106	             	  5.110e-001 	
        95.167	  7.440e-003 	             	
        95.170	             	  5.110e-001 	
        95.231	  7.440e-003 	             	
        95.234	             	  5.110e-001 	
        95.295	  7.420e-003 	             	
        95.298	             	  5.110e-001 	
        95.359	  7.410e-003 	             	
        95.362	             	  5.110e-001 	
        95.423	  7.440e-003 	             	
        95.426	             	  5.110e-001 	
        95.487	  7.450e-003 	             	
        95.522	             	  5.110e-001 	
        95.583	  7.380e-003 	             	
        95.586	             	  5.110e-001 	
        95.647	  7.410e-003 	             	
        95.650	             	  5.110e-001 	
        95.711	  7.420e-003 	             	
        95.714	             	  5.110e-001 	
        95.775	  7.450e-003 	             	
        95.778	             	  5.110e-001 	
        95.839	  7.410e-003 	             	
        95.842	             	  5.100e-001 	
        95.903	  7.430e-003 	             	
        95.906	             	  5.100e-001 	
        95.967	  7.400e-003 	             	
        95.970	             	  5.100e-001 	
        96.031	  7.440e-003 	             	
        96.034	             	  5.110e-001 	
        96.095	  7.410e-003 	             	
        96.098	             	  5.110e-001 	
        96.159	  7.420e-003 	             	
        96.162	             	  5.110e-001 	
        96.223	  7.400e-003 	             	
        96.226	             	  5.110e-001 	
        96.287	  7.400e-003 	             	
        96.322	             	  5.110e-001 	
        96.351	  7.420e-003 	             	
        96.386	             	  5.110e-001 	
        96.447	  7.390e-003 	             	
        96.450	             	  5.110e-001 	
        96.511	  7.390e-003 	             	
        96.514	             	  5.110e-001 	
        96.575	  7.420e-003 	             	
        96.578	             	  5.110e-001 	
        96.639	  7.410e-003 	             	
        96.642	             	  5.100e-001 	
        96.703	  7.390e-003 	             	
        96.706	             	  5.100e-001 	
        96.767	  7.390e-003 	             	
        96.770	             	  5.100e-001 	
        96.831	  7.370e-003 	             	
        96.834	             	  5.100e-001 	
        96.895	  7.360e-003 	             	
        96.898	             	  5.100e-001 	
        96.959	  7.390e-003 	             	
        96.962	             	  5.100e-001 	
        97.023	  7.390e-003 	             	
        97.026	             	  5.100e-001 	
        97.087	  7.360e-003 	             	
        97.122	             	  5.100e-001 	
        97.151	  7.370e-003 	             	
        97.186	             	  5.100e-001 	
        97.247	  7.380e-003 	             	
        97.250	             	  5.100e-001 	
        97.311	  7.340e-003 	             	
        97.314	             	  5.110e-001 	
        97.375	  7.350e-003 	             	
        97.378	             	  5.110e-001 	
        97.439	  7.360e-003 	             	
        97.442	             	  5.110e-001 	
        97.503	  7.350e-003 	             	
        97.506	             	  5.110e-001 	
        97.567	  7.390e-003 	             	
        97.570	             	  5.110e-001 	
        97.631	  7.380e-003 	             	
        97.634	             	  5.110e-001 	
        97.695	  7.390e-003 	             	
        97.698	             	  5.110e-001 	
        97.759	  7.400e-003 	             	
        97.762	             	  5.110e-001 	
        97.823	  7.350e-003 	             	
        97.826	             	  5.110e-001 	
        97.887	  7.320e-003 	             	
        97.922	             	  5.110e-001 	
        97.951	  7.320e-003 	             	
        97.986	             	  5.100e-001 	
        98.047	  7.310e-003 	             	
        98.050	             	  5.100e-001 	
        98.111	  7.350e-003 	             	
        98.114	             	  5.100e-001 	
        98.175	  7.370e-003 	             	
        98.178	             	  5.100e-001 	
        98.239	  7.370e-003 	             	
        98.242	             	  5.100e-001 	
        98.303	  7.380e-003 	             	
        98.306	             	  5.110e-001 	
        98.367	  7.380e-003 	             	
        98.370	             	  5.110e-001 	
        98.431	  7.390e-003 	             	
        98.434	             	  5.110e-001 	
        98.495	  7.380e-003 	             	
        98.498	             	  5.110e-001 	
        98.559	  7.400e-003 	             	
        98.562	             	  5.110e-001 	
        98.623	  7.400e-003 	             	
        98.626	             	  5.110e-001 	
        98.687	  7.400e-003 	             	
        98.722	             	  5.110e-001 	
        98.751	  7.410e-003 	             	
        98.786	             	  5.110e-001 	
        98.847	  7.420e-003 	             	
        98.850	             	  5.110e-001 	
        98.911	  7.430e-003 	             	
        98.914	             	  5.110e-001 	
        98.975	  7.420e-003 	             	
        98.978	             	  5.110e-001 	
        99.039	  7.420e-003 	             	
        99.042	             	  5.110e-001 	
        99.103	  7.430e-003 	             	
        99.106	             	  5.110e-001 	
        99.167	  7.400e-003 	             	
        99.170	             	  5.100e-001 	
        99.231	  7.380e-003 	             	
        99.234	             	  5.100e-001 	
        99.295	  7.440e-003 	             	
        99.298	             	  5.110e-001 	
        99.359	  7.410e-003 	             	
        99.362	             	  5.110e-001 	
        99.423	  7.370e-003 	             	
        99.426	             	  5.110e-001 	
        99.487	  7.370e-003 	             	
        99.522	             	  5.110e-001 	
        99.551	  7.360e-003 	             	
        99.586	             	  5.110e-001 	
        99.647	  7.320e-003 	             	
        99.650	             	  5.110e-001 	
        99.711	  7.300e-003 	             	
        99.714	             	  5.110e-001 	
        99.775	  7.320e-003 	             	
        99.778	             	  5.110e-001 	
        99.839	  7.330e-003 	             	
        99.842	             	  5.100e-001 	
        99.903	  7.320e-003 	             	
        99.906	             	  5.100e-001 	
        99.967	  7.320e-003 	             	
        99.970	             	  5.100e-001 	
       100.031	  7.300e-003 	             	
       100.034	             	  5.100e-001 	
       100.095	  7.340e-003 	             	
       100.098	             	  5.100e-001 	
       100.159	  7.350e-003 	             	
       100.162	             	  5.100e-001 	
       100.223	  7.300e-003 	             	
       100.226	             	  5.100e-001 	
       100.287	  7.290e-003 	             	
       100.322	             	  5.100e-001 	
       100.351	  7.280e-003 	             	
       100.386	             	  5.100e-001 	
       100.447	  7.260e-003 	             	
       100.450	             	  5.100e-001 	
       100.511	  7.280e-003 	             	
       100.514	             	  5.110e-001 	
       100.575	  7.260e-003 	             	
       100.578	             	  5.100e-001 	
       100.639	  7.270e-003 	             	
       100.642	             	  5.110e-001 	
       100.703	  7.270e-003 	             	
       100.706	             	  5.110e-001 	
       100.767	  7.270e-003 	             	
       100.770	             	  5.110e-001 	
       100.831	  7.250e-003 	             	
       100.834	             	  5.100e-001 	
       100.895	  7.240e-003 	             	
       100.898	             	  5.100e-001 	
       100.959	  7.240e-003 	             	
       100.962	             	  5.100e-001 	
       101.023	  7.250e-003 	             	
       101.026	             	  5.100e-001 	
       101.087	  7.250e-003 	             	
       101.122	             	  5.100e-001 	
       101.151	  7.250e-003 	             	
       101.186	             	  5.100e-001 	
       101.247	  7.240e-003 	             	
       101.250	             	  5.100e-001 	
       101.311	  7.290e-003 	             	
       101.314	             	  5.100e-001 	
       101.375	  7.280e-003 	             	
       101.378	             	  5.100e-001 	
       101.439	  7.290e-003 	             	
       101.442	             	  5.100e-001 	
       101.503	  7.330e-003 	             	
       101.506	             	  5.100e-001 	
       101.567	  7.310e-003 	             	
       101.570	             	  5.100e-001 	
       101.631	  7.340e-003 	             	
       101.634	             	  5.100e-001 	
       101.695	  7.370e-003 	             	
       101.698	             	  5.100e-001 	
       101.759	  7.380e-003 	             	
       101.762	             	  5.100e-001 	
       101.823	  7.370e-003 	             	
       101.826	             	  5.100e-001 	
       101.887	  7.390e-003 	             	
       101.922	             	  5.100e-001 	
       101.951	  7.360e-003 	             	
       101.986	             	  5.100e-001 	
       102.047	  7.370e-003 	             	
       102.050	             	  5.100e-001 	
       102.111	  7.420e-003 	             	
       102.114	             	  5.100e-001 	
       102.175	  7.360e-003 	             	
       102.178	             	  5.100e-001 	
       102.239	  7.400e-003 	             	
       102.242	             	  5.100e-001 	
       102.303	  7.330e-003 	             	
       102.306	             	  5.100e-001 	
       102.368	  7.360e-003 	             	
       102.371	             	  5.100e-001 	
       102.432	  7.340e-003 	             	
       102.435	             	  5.100e-001 	
       102.496	  7.350e-003 	             	
       102.499	             	  5.100e-001 	
       102.560	  7.370e-003 	             	
       102.563	             	  5.100e-001 	
       102.624	  7.350e-003 	             	
       102.627	             	  5.100e-001 	
       102.688	  7.370e-003 	             	
       102.723	             	  5.100e-001 	
       102.752	  7.340e-003 	             	
       102.787	             	  5.100e-001 	
       102.848	  7.350e-003 	             	
       102.850	             	  5.100e-001 	
       102.912	  7.340e-003 	             	
       102.915	             	  5.100e-001 	
       102.976	  7.380e-003 	             	
       102.979	             	  5.100e-001 	
       103.040	  7.350e-003 	             	
       103.043	             	  5.100e-001 	
       103.104	  7.380e-003 	             	
       103.106	             	  5.100e-001 	
       103.168	  7.370e-003 	             	
       103.170	             	  5.100e-001 	
       103.232	  7.390e-003 	             	
       103.234	             	  5.100e-001 	
       103.296	  7.400e-003 	             	
       103.298	             	  5.110e-001 	
       103.360	  7.390e-003 	             	
       103.362	             	  5.100e-001 	
       103.424	  7.370e-003 	             	
       103.426	             	  5.100e-001 	
       103.488	  7.430e-003 	             	
       103.490	             	  5.100e-001 	
       103.552	  7.410e-003 	             	
       103.586	             	  5.100e-001 	
       103.648	  7.400e-003 	             	
       103.650	             	  5.100e-001 	
       103.712	  7.360e-003 	             	
       103.714	             	  5.100e-001 	
       103.776	  7.370e-003 	             	
       103.778	             	  5.100e-001 	
       103.840	  7.360e-003 	             	
       103.842	             	  5.100e-001 	
       103.904	  7.350e-003 	             	
       103.906	             	  5.100e-001 	
       103.968	  7.380e-003 	             	
       103.970	             	  5.100e-001 	
       104.032	  7.380e-003 	             	
       104.034	             	  5.100e-001 	
       104.096	  7.350e-003 	             	
       104.098	             	  5.100e-001 	
       104.160	  7.350e-003 	             	
       104.162	             	  5.100e-001 	
       104.224	  7.360e-003 	             	
       104.226	             	  5.100e-001 	
       104.288	  7.360e-003 	             	
       104.290	             	  5.100e-001 	
       104.352	  7.330e-003 	             	
       104.386	             	  5.100e-001 	
       104.448	  7.330e-003 	             	
       104.450	             	  5.100e-001 	
       104.512	  7.340e-003 	             	
       104.514	             	  5.100e-001 	
       104.576	  7.330e-003 	             	
       104.578	             	  5.100e-001 	
       104.640	  7.350e-003 	             	
       104.643	             	  5.100e-001 	
       104.704	  7.310e-003 	             	
       104.706	             	  5.100e-001 	
       104.768	  7.330e-003 	             	
       104.770	             	  5.100e-001 	
       104.832	  7.290e-003 	             	
       104.834	             	  5.100e-001 	
       104.896	  7.290e-003 	             	
       104.898	             	  5.100e-001 	
       104.960	  7.290e-003 	             	
       104.962	             	  5.100e-001 	
       105.023	  7.300e-003 	             	
       105.026	             	  5.100e-001 	
       105.088	  7.290e-003 	             	
       105.090	             	  5.100e-001 	
       105.152	  7.290e-003 	             	
       105.186	             	  5.100e-001 	
       105.247	  7.300e-003 	             	
       105.250	             	  5.100e-001 	
       105.311	  7.290e-003 	             	
       105.314	             	  5.100e-001 	
       105.376	  7.310e-003 	             	
       105.378	             	  5.100e-001 	
       105.440	  7.290e-003 	             	
       105.442	             	  5.100e-001 	
       105.504	  7.290e-003 	             	
       105.506	             	  5.100e-001 	
       105.567	  7.300e-003 	             	
       105.570	             	  5.100e-001 	
       105.632	  7.290e-003 	             	
       105.634	             	  5.100e-001 	
       105.696	  7.280e-003 	             	
       105.698	             	  5.100e-001 	
       105.759	  7.280e-003 	             	
       105.762	             	  5.100e-001 	
       105.824	  7.270e-003 	             	
       105.826	             	  5.100e-001 	
       105.887	  7.280e-003 	             	
       105.890	             	  5.100e-001 	
       105.952	  7.290e-003 	             	
       105.986	             	  5.100e-001 	
       106.048	  7.270e-003 	             	
       106.050	             	  5.100e-001 	
       106.111	  7.290e-003 	             	
       106.114	             	  5.100e-001 	
       106.176	  7.250e-003 	             	
       106.178	             	  5.100e-001 	
       106.240	  7.240e-003 	             	
       106.242	             	  5.100e-001 	
       106.303	  7.240e-003 	             	
       106.306	             	  5.100e-001 	
       106.368	  7.160e-003 	             	
       106.370	             	  5.100e-001 	
       106.432	  7.210e-003 	             	
       106.434	             	  5.100e-001 	
       106.495	  7.190e-003 	             	
       106.498	             	  5.100e-001 	
       106.560	  7.190e-003 	             	
       106.562	             	  5.100e-001 	
       106.623	  7.200e-003 	             	
       106.626	             	  5.100e-001 	
       106.687	  7.170e-003 	             	
       106.690	             	  5.100e-001 	
       106.751	  7.180e-003 	             	
       106.786	             	  5.100e-001 	
       106.848	  7.190e-003 	             	
       106.850	             	  5.100e-001 	
       106.911	  7.170e-003 	             	
       106.914	             	  5.100e-001 	
       106.975	  7.230e-003 	             	
       106.978	             	  5.100e-001 	
       107.039	  7.200e-003 	             	
       107.042	             	  5.100e-001 	
       107.103	  7.220e-003 	             	
       107.106	             	  5.100e-001 	
       107.167	  7.240e-003 	             	
       107.170	             	  5.100e-001 	
       107.231	  7.250e-003 	             	
       107.234	             	  5.100e-001 	
       107.296	  7.270e-003 	             	
       107.298	             	  5.100e-001 	
       107.359	  7.250e-003 	             	
       107.362	             	  5.100e-001 	
       107.423	  7.290e-003 	             	
       107.426	             	  5.100e-001 	
       107.487	  7.270e-003 	             	
       107.490	             	  5.100e-001 	
       107.551	  7.280e-003 	             	
       107.586	             	  5.100e-001 	
       107.647	  7.310e-003 	             	
       107.651	             	  5.100e-001 	
       107.711	  7.280e-003 	             	
       107.714	             	  5.100e-001 	
       107.775	  7.300e-003 	             	
       107.778	             	  5.100e-001 	
       107.839	  7.330e-003 	             	
       107.842	             	  5.100e-001 	
       107.903	  7.320e-003 	             	
       107.906	             	  5.100e-001 	
       107.967	  7.340e-003 	             	
       107.970	             	  5.100e-001 	
       108.031	  7.300e-003 	             	
       108.034	             	  5.100e-001 	
       108.095	  7.330e-003 	             	
       108.098	             	  5.100e-001 	
       108.159	  7.310e-003 	             	
       108.162	             	  5.100e-001 	
       108.223	  7.330e-003 	             	
       108.226	             	  5.100e-001 	
       108.287	  7.330e-003 	             	
       108.290	             	  5.100e-001 	
       108.351	  7.340e-003 	             	
       108.386	             	  5.100e-001 	
       108.447	  7.310e-003 	             	
       108.450	             	  5.100e-001 	
       108.511	  7.340e-003 	             	
       108.514	             	  5.100e-001 	
       108.575	  7.360e-003 	             	
       108.578	             	  5.100e-001 	
       108.639	  7.320e-003 	             	
       108.642	             	  5.100e-001 	
       108.703	  7.310e-003 	             	
       108.706	             	  5.100e-001 	
       108.767	  7.300e-003 	             	
       108.770	             	  5.100e-001 	
       108.831	  7.290e-003 	             	
       108.834	             	  5.100e-001 	
       108.895	  7.270e-003 	             	
       108.898	             	  5.100e-001 	
       108.959	  7.280e-003 	             	
       108.962	             	  5.100e-001 	
       109.023	  7.220e-003 	             	
       109.026	             	  5.100e-001 	
       109.087	  7.220e-003 	             	
       109.090	             	  5.100e-001 	
       109.151	  7.220e-003 	             	
       109.186	             	  5.100e-001 	
       109.215	  7.190e-003 	             	
       109.250	             	  5.100e-001 	
       109.311	  7.170e-003 	             	
       109.314	             	  5.100e-001 	
       109.375	  7.200e-003 	             	
       109.378	             	  5.100e-001 	
       109.439	  7.200e-003 	             	
       109.442	             	  5.100e-001 	
       109.503	  7.210e-003 	             	
       109.506	             	  5.100e-001 	
       109.567	  7.190e-003 	             	
       109.570	             	  5.100e-001 	
       109.631	  7.210e-003 	             	
       109.634	             	  5.100e-001 	
       109.695	  7.160e-003 	             	
       109.698	             	  5.100e-001 	
       109.759	  7.170e-003 	             	
       109.762	             	  5.100e-001 	
       109.823	  7.150e-003 	             	
       109.826	             	  5.100e-001 	
       109.887	  7.090e-003 	             	
       109.890	             	  5.100e-001 	
       109.951	  7.130e-003 	             	
       109.986	             	  5.100e-001 	
       110.015	  7.110e-003 	             	
       110.050	             	  5.100e-001 	
       110.111	  7.120e-003 	             	
       110.114	             	  5.100e-001 	
       110.175	  7.130e-003 	             	
       110.178	             	  5.100e-001 	
       110.239	  7.120e-003 	             	
       110.242	             	  5.100e-001 	
       110.303	  7.130e-003 	             	
       110.306	             	  5.110e-001 	
       110.367	  7.120e-003 	             	
       110.370	             	  5.110e-001 	
       110.431	  7.090e-003 	             	
       110.434	             	  5.110e-001 	
       110.495	  7.110e-003 	             	
       110.498	             	  5.100e-001 	
       110.559	  7.120e-003 	             	
       110.562	             	  5.100e-001 	
       110.623	  7.110e-003 	             	
       110.626	             	  5.100e-001 	
       110.687	  7.130e-003 	             	
       110.690	             	  5.100e-001 	
       110.751	  7.110e-003 	             	
       110.786	             	  5.100e-001 	
       110.815	  7.120e-003 	             	
       110.850	             	  5.100e-001 	
       110.911	  7.110e-003 	             	
       110.914	             	  5.100e-001 	
       110.975	  7.110e-003 	             	
       110.978	             	  5.100e-001 	
       111.039	  7.100e-003 	             	
       111.042	             	  5.100e-001 	
       111.103	  7.100e-003 	             	
       111.106	             	  5.110e-001 	
       111.167	  7.130e-003 	             	
       111.170	             	  5.110e-001 	
       111.231	  7.070e-003 	             	
       111.234	             	  5.110e-001 	
       111.295	  7.040e-003 	             	
       111.298	             	  5.110e-001 	
       111.359	  7.030e-003 	             	
       111.362	             	  5.110e-001 	
       111.423	  7.010e-003 	             	
       111.426	             	  5.100e-001 	
       111.487	  7.020e-003 	             	
       111.490	             	  5.110e-001 	
       111.551	  7.020e-003 	             	
       111.586	             	  5.100e-001 	
       111.615	  7.000e-003 	             	
       111.650	             	  5.100e-001 	
       111.711	  6.980e-003 	             	
       111.714	             	  5.100e-001 	
       111.775	  7.010e-003 	             	
       111.778	             	  5.100e-001 	
       111.839	  6.970e-003 	             	
       111.842	             	  5.110e-001 	
       111.903	  6.970e-003 	             	
       111.906	             	  5.110e-001 	
       111.967	  6.980e-003 	             	
       111.970	             	  5.110e-001 	
       112.031	  6.960e-003 	             	
       112.034	             	  5.110e-001 	
       112.095	  6.950e-003 	             	
       112.098	             	  5.110e-001 	
       112.159	  6.960e-003 	             	
       112.162	             	  5.100e-001 	
       112.223	  6.910e-003 	             	
       112.226	             	  5.100e-001 	
       112.287	  6.930e-003 	             	
       112.290	             	  5.100e-001 	
       112.351	  6.930e-003 	             	
       112.386	             	  5.100e-001 	
       112.415	  6.960e-003 	             	
       112.450	             	  5.100e-001 	
       112.511	  6.970e-003 	             	
       112.514	             	  5.100e-001 	
       112.575	  6.990e-003 	             	
       112.578	             	  5.100e-001 	
       112.639	  7.000e-003 	             	
       112.642	             	  5.100e-001 	
       112.703	  7.000e-003 	             	
       112.706	             	  5.100e-001 	
       112.767	  7.030e-003 	             	
       112.770	             	  5.100e-001 	
       112.831	  7.020e-003 	             	
       112.834	             	  5.110e-001 	
       112.895	  7.050e-003 	             	
       112.898	             	  5.100e-001 	
       112.959	  7.020e-003 	             	
       112.962	             	  5.100e-001 	
       113.023	  7.070e-003 	             	
       113.026	             	  5.100e-001 	
       113.087	  7.090e-003 	             	
       113.090	             	  5.100e-001 	
       113.151	  7.150e-003 	             	
       113.186	             	  5.100e-001 	
       113.215	  7.140e-003 	             	
       113.250	             	  5.100e-001 	
       113.311	  7.170e-003 	             	
       113.314	             	  5.100e-001 	
       113.375	  7.180e-003 	             	
       113.378	             	  5.100e-001 	
       113.439	  7.180e-003 	             	
       113.442	             	  5.100e-001 	
       113.503	  7.190e-003 	             	
       113.506	             	  5.100e-001 	
       113.567	  7.190e-003 	             	
       113.570	             	  5.100e-001 	
       113.631	  7.210e-003 	             	
       113.634	             	  5.100e-001 	
       113.695	  7.220e-003 	             	
       113.698	             	  5.100e-001 	
       113.759	  7.250e-003 	             	
       113.762	             	  5.100e-001 	
       113.823	  7.270e-003 	             	
       113.826	             	  5.100e-001 	
       113.887	  7.210e-003 	             	
       113.890	             	  5.100e-001 	
       113.951	  7.250e-003 	             	
       113.986	             	  5.100e-001 	
       114.015	  7.270e-003 	             	
       114.050	             	  5.100e-001 	
       114.111	  7.240e-003 	             	
       114.114	             	  5.100e-001 	
       114.175	  7.260e-003 	             	
       114.178	             	  5.100e-001 	
       114.239	  7.250e-003 	             	
       114.242	             	  5.100e-001 	
       114.303	  7.240e-003 	             	
       114.306	             	  5.100e-001 	
       114.367	  7.230e-003 	             	
       114.370	             	  5.100e-001 	
       114.431	  7.220e-003 	             	
       114.434	             	  5.100e-001 	
       114.495	  7.260e-003 	             	
       114.498	             	  5.100e-001 	
       114.559	  7.250e-003 	             	
       114.562	             	  5.100e-001 	
       114.623	  7.250e-003 	             	
       114.626	             	  5.100e-001 	
       114.687	  7.220e-003 	             	
       114.690	             	  5.100e-001 	
       114.751	  7.240e-003 	             	
       114.754	             	  5.100e-001 	
       114.815	  7.210e-003 	             	
       114.850	             	  5.100e-001 	
       114.911	  7.220e-003 	             	
       114.914	             	  5.100e-001 	
       114.975	  7.210e-003 	             	
       114.978	             	  5.100e-001 	
       115.039	  7.200e-003 	             	
       115.042	             	  5.100e-001 	
       115.103	  7.190e-003 	             	
       115.106	             	  5.100e-001 	
       115.167	  7.160e-003 	             	
       115.170	             	  5.100e-001 	
       115.231	  7.140e-003 	             	
       115.234	             	  5.100e-001 	
       115.295	  7.160e-003 	             	
       115.298	             	  5.100e-001 	
       115.359	  7.150e-003 	             	
       115.362	             	  5.100e-001 	
       115.423	  7.150e-003 	             	
       115.426	             	  5.100e-001 	
       115.487	  7.170e-003 	             	
       115.490	             	  5.100e-001 	
       115.551	  7.150e-003 	             	
       115.554	             	  5.100e-001 	
       115.615	  7.150e-003 	             	
       115.650	             	  5.100e-001 	
       115.711	  7.140e-003 	             	
       115.714	             	  5.100e-001 	
       115.775	  7.100e-003 	             	
       115.778	             	  5.100e-001 	
       115.839	  7.070e-003 	             	
       115.842	             	  5.100e-001 	
       115.903	  7.050e-003 	             	
       115.906	             	  5.100e-001 	
       115.967	  7.080e-003 	             	
       115.970	             	  5.100e-001 	
       116.031	  7.070e-003 	             	
       116.034	             	  5.100e-001 	
       116.095	  7.030e-003 	             	
       116.098	             	  5.100e-001 	
       116.159	  7.030e-003 	             	
       116.162	             	  5.110e-001 	
       116.223	  6.990e-003 	             	
       116.226	             	  5.110e-001 	
       116.287	  7.030e-003 	             	
       116.290	             	  5.110e-001 	
       116.351	  7.000e-003 	             	
       116.354	             	  5.110e-001 	
       116.415	  7.040e-003 	             	
       116.450	             	  5.110e-001 	
       116.511	  7.010e-003 	             	
       116.514	             	  5.110e-001 	
       116.575	  7.000e-003 	             	
       116.578	             	  5.100e-001 	
       116.639	  6.960e-003 	             	
       116.642	             	  5.100e-001 	
       116.703	  6.970e-003 	             	
       116.706	             	  5.100e-001 	
       116.767	  6.960e-003 	             	
       116.770	             	  5.100e-001 	
       116.831	  6.940e-003 	             	
       116.834	             	  5.100e-001 	
       116.895	  6.960e-003 	             	
       116.898	             	  5.100e-001 	
       116.959	  6.940e-003 	             	
       116.962	             	  5.100e-001 	
       117.023	  6.910e-003 	             	
       117.026	             	  5.100e-001 	
       117.087	  6.910e-003 	             	
       117.090	             	  5.100e-001 	
       117.151	  6.900e-003 	             	
       117.154	             	  5.100e-001 	
       117.215	  6.890e-003 	             	
       117.250	             	  5.100e-001 	
       117.311	  6.900e-003 	             	
       117.314	             	  5.100e-001 	
       117.375	  6.890e-003 	             	
       117.378	             	  5.100e-001 	
       117.439	  6.900e-003 	             	
       117.442	             	  5.110e-001 	
       117.503	  6.840e-003 	             	
       117.506	             	  5.110e-001 	
       117.567	  6.900e-003 	             	
       117.570	             	  5.110e-001 	
       117.631	  6.910e-003 	             	
       117.634	             	  5.110e-001 	
       117.695	  6.910e-003 	             	
       117.698	             	  5.110e-001 	
       117.759	  6.890e-003 	             	
       117.762	             	  5.100e-001 	
       117.823	  6.900e-003 	             	
       117.826	             	  5.100e-001 	
       117.887	  6.890e-003 	             	
       117.890	             	  5.100e-001 	
       117.951	  6.860e-003 	             	
       117.954	             	  5.100e-001 	
       118.015	  6.890e-003 	             	
       118.050	             	  5.100e-001 	
       118.111	  6.880e-003 	             	
       118.114	             	  5.100e-001 	
       118.175	  6.910e-003 	             	
       118.178	             	  5.100e-001 	
       118.239	  6.930e-003 	             	
       118.242	             	  5.100e-001 	
       118.303	  6.950e-003 	             	
       118.306	             	  5.100e-001 	
       118.367	  6.990e-003 	             	
       118.370	             	  5.100e-001 	
       118.431	  6.970e-003 	             	
       118.434	             	  5.100e-001 	
       118.495	  7.010e-003 	             	
       118.498	             	  5.100e-001 	
       118.559	  7.030e-003 	             	
       118.562	             	  5.100e-001 	
       118.623	  7.020e-003 	             	
       118.626	             	  5.100e-001 	
       118.687	  7.040e-003 	             	
       118.690	             	  5.100e-001 	
       118.751	  7.050e-003 	             	
       118.754	             	  5.100e-001 	
       118.815	  7.100e-003 	             	
       118.850	             	  5.100e-001 	
       118.911	  7.100e-003 	             	
       118.914	             	  5.100e-001 	
       118.975	  7.110e-003 	             	
       118.978	             	  5.100e-001 	
       119.039	  7.140e-003 	             	
       119.042	             	  5.100e-001 	
       119.103	  7.110e-003 	             	
       119.106	             	  5.110e-001 	
       119.167	  7.120e-003 	             	
       119.170	             	  5.110e-001 	
       119.231	  7.160e-003 	             	
       119.234	             	  5.100e-001 	
       119.295	  7.150e-003 	             	
       119.298	             	  5.100e-001 	
       119.359	  7.170e-003 	             	
       119.362	             	  5.100e-001 	
       119.423	  7.190e-003 	             	
       119.426	             	  5.100e-001 	
       119.487	  7.140e-003 	             	
       119.490	             	  5.100e-001 	
       119.551	  7.170e-003 	             	
       119.554	             	  5.100e-001 	
       119.615	  7.180e-003 	             	
       119.650	             	  5.100e-001 	
       119.711	  7.170e-003 	             	
       119.714	             	  5.100e-001 	
       119.775	  7.190e-003 	             	
       119.778	             	  5.100e-001 	
       119.840	  7.210e-003 	             	
       119.842	             	  5.100e-001 	
       119.904	  7.210e-003 	             	
       119.907	             	  5.100e-001 	
       119.968	  7.160e-003 	             	
       119.971	             	  5.100e-001 	
       120.032	  7.120e-003 	             	
       120.035	             	  5.100e-001 	
       120.096	  7.020e-003 	             	
       120.098	             	  5.100e-001 	
       120.160	  7.080e-003 	             	
       120.162	             	  5.100e-001 	
       120.224	  7.050e-003 	             	
       120.227	             	  5.100e-001 	
       120.288	  7.030e-003 	             	
       120.291	             	  5.100e-001 	
       120.352	  7.010e-003 	             	
       120.355	             	  5.110e-001 	
       120.416	  7.000e-003 	             	
       120.451	             	  5.100e-001 	
       120.512	  7.050e-003 	             	
       120.515	             	  5.100e-001 	
       120.576	  7.000e-003 	             	
       120.579	             	  5.100e-001 	
       120.640	  7.010e-003 	             	
       120.642	             	  5.100e-001 	
       120.704	  7.000e-003 	             	
       120.707	             	  5.100e-001 	
       120.768	  6.980e-003 	             	
       120.771	             	  5.100e-001 	
       120.832	  7.010e-003 	             	
       120.834	             	  5.100e-001 	
       120.896	  6.990e-003 	             	
       120.898	             	  5.100e-001 	
       120.960	  6.960e-003 	             	
       120.962	             	  5.100e-001 	
       121.024	  6.980e-003 	             	
       121.026	             	  5.100e-001 	
       121.088	  6.950e-003 	             	
       121.091	             	  5.100e-001 	
       121.152	  6.970e-003 	             	
       121.154	             	  5.100e-001 	
       121.216	  6.950e-003 	             	
       121.250	             	  5.100e-001 	
       121.312	  6.930e-003 	             	
       121.314	             	  5.100e-001 	
       121.376	  6.910e-003 	             	
       121.378	             	  5.100e-001 	
       121.440	  6.880e-003 	             	
       121.442	             	  5.100e-001 	
       121.504	  6.860e-003 	             	
       121.507	             	  5.100e-001 	
       121.568	  6.820e-003 	             	
       121.570	             	  5.100e-001 	
       121.632	  6.850e-003 	             	
       121.634	             	  5.100e-001 	
       121.696	  6.790e-003 	             	
       121.698	             	  5.110e-001 	
       121.760	  6.770e-003 	             	
       121.762	             	  5.110e-001 	
       121.824	  6.790e-003 	             	
       121.826	             	  5.110e-001 	
       121.888	  6.790e-003 	             	
       121.891	             	  5.110e-001 	
       121.952	  6.760e-003 	             	
       121.954	             	  5.110e-001 	
       122.016	  6.770e-003 	             	
       122.050	             	  5.110e-001 	
       122.112	  6.740e-003 	             	
       122.114	             	  5.110e-001 	
       122.176	  6.750e-003 	             	
       122.178	             	  5.110e-001 	
       122.240	  6.710e-003 	             	
       122.242	             	  5.110e-001 	
       122.304	  6.740e-003 	             	
       122.306	             	  5.110e-001 	
       122.368	  6.750e-003 	             	
       122.370	             	  5.110e-001 	
       122.432	  6.740e-003 	             	
       122.434	             	  5.110e-001 	
       122.496	  6.710e-003 	             	
       122.498	             	  5.110e-001 	
       122.560	  6.730e-003 	             	
       122.562	             	  5.110e-001 	
       122.624	  6.720e-003 	             	
       122.626	             	  5.110e-001 	
       122.688	  6.750e-003 	             	
       122.690	             	  5.110e-001 	
       122.752	  6.810e-003 	             	
       122.754	             	  5.110e-001 	
       122.816	  6.790e-003 	             	
       122.850	             	  5.110e-001 	
       122.879	  6.780e-003 	             	
       122.915	             	  5.100e-001 	
       122.976	  6.810e-003 	             	
       122.978	             	  5.100e-001 	
       123.040	  6.830e-003 	             	
       123.042	             	  5.100e-001 	
       123.104	  6.840e-003 	             	
       123.106	             	  5.100e-001 	
       123.168	  6.850e-003 	             	
       123.170	             	  5.110e-001 	
       123.231	  6.820e-003 	             	
       123.234	             	  5.110e-001 	
       123.296	  6.830e-003 	             	
       123.298	             	  5.110e-001 	
       123.359	  6.840e-003 	             	
       123.362	             	  5.110e-001 	
       123.423	  6.810e-003 	             	
       123.426	             	  5.110e-001 	
       123.487	  6.860e-003 	             	
       123.490	             	  5.110e-001 	
       123.551	  6.850e-003 	             	
       123.554	             	  5.110e-001 	
       123.615	  6.890e-003 	             	
       123.650	             	  5.100e-001 	
       123.680	  6.910e-003 	             	
       123.714	             	  5.100e-001 	
       123.776	  6.910e-003 	             	
       123.778	             	  5.110e-001 	
       123.839	  6.920e-003 	             	
       123.842	             	  5.110e-001 	
       123.903	  6.900e-003 	             	
       123.906	             	  5.110e-001 	
       123.967	  6.980e-003 	             	
       123.970	             	  5.100e-001 	
       124.032	  6.980e-003 	             	
       124.034	             	  5.100e-001 	
       124.095	  6.980e-003 	             	
       124.098	             	  5.100e-001 	
       124.159	  7.050e-003 	             	
       124.162	             	  5.100e-001 	
       124.223	  7.030e-003 	             	
       124.226	             	  5.100e-001 	
       124.287	  7.090e-003 	             	
       124.290	             	  5.100e-001 	
       124.351	  7.070e-003 	             	
       124.354	             	  5.100e-001 	
       124.415	  7.040e-003 	             	
       124.450	             	  5.100e-001 	
       124.479	  7.100e-003 	             	
       124.514	             	  5.100e-001 	
       124.575	  7.090e-003 	             	
       124.578	             	  5.110e-001 	
       124.639	  7.120e-003 	             	
       124.642	             	  5.110e-001 	
       124.703	  7.120e-003 	             	
       124.707	             	  5.110e-001 	
       124.767	  7.090e-003 	             	
       124.770	             	  5.110e-001 	
       124.831	  7.110e-003 	             	
       124.834	             	  5.110e-001 	
       124.895	  7.120e-003 	             	
       124.898	             	  5.100e-001 	
       124.959	  7.100e-003 	             	
       124.962	             	  5.100e-001 	
       125.023	  7.070e-003 	             	
       125.026	             	  5.100e-001 	
       125.087	  7.080e-003 	             	
       125.090	             	  5.100e-001 	
       125.151	  7.050e-003 	             	
       125.154	             	  5.100e-001 	
       125.215	  7.050e-003 	             	
       125.250	             	  5.100e-001 	
       125.279	  7.020e-003 	             	
       125.314	             	  5.100e-001 	
       125.375	  7.030e-003 	             	
       125.378	             	  5.100e-001 	
       125.439	  7.000e-003 	             	
       125.442	             	  5.100e-001 	
       125.503	  7.020e-003 	             	
       125.506	             	  5.100e-001 	
       125.567	  7.000e-003 	             	
       125.570	             	  5.110e-001 	
       125.631	  7.020e-003 	             	
       125.634	             	  5.110e-001 	
       125.695	  7.010e-003 	             	
       125.698	             	  5.110e-001 	
       125.759	  7.020e-003 	             	
       125.762	             	  5.100e-001 	
       125.823	  7.030e-003 	             	
       125.826	             	  5.100e-001 	
       125.887	  7.010e-003 	             	
       125.890	             	  5.100e-001 	
       125.951	  7.010e-003 	             	
       125.954	             	  5.100e-001 	
       126.015	  7.000e-003 	             	
       126.050	             	  5.100e-001 	
       126.079	  7.040e-003 	             	
       126.114	             	  5.100e-001 	
       126.175	  7.010e-003 	             	
       126.178	             	  5.100e-001 	
       126.239	  6.980e-003 	             	
       126.242	             	  5.100e-001 	
       126.303	  6.960e-003 	             	
       126.306	             	  5.100e-001 	
       126.367	  6.950e-003 	             	
       126.370	             	  5.100e-001 	
       126.431	  6.920e-003 	             	
       126.434	             	  5.100e-001 	
       126.495	  6.880e-003 	             	
       126.498	             	  5.100e-001 	
       126.559	  6.870e-003 	             	
       126.562	             	  5.100e-001 	
       126.623	  6.840e-003 	             	
       126.626	             	  5.100e-001 	
       126.687	  6.820e-003 	             	
       126.690	             	  5.100e-001 	
       126.751	  6.760e-003 	             	
       126.754	             	  5.100e-001 	
       126.815	  6.750e-003 	             	
       126.850	             	  5.100e-001 	
       126.879	  6.750e-003 	             	
       126.914	             	  5.100e-001 	
       126.975	  6.740e-003 	             	
       126.978	             	  5.100e-001 	
       127.039	  6.750e-003 	             	
       127.042	             	  5.100e-001 	
       127.103	  6.740e-003 	             	
       127.106	             	  5.100e-001 	
       127.167	  6.740e-003 	             	
       127.170	             	  5.100e-001 	
       127.231	  6.730e-003 	             	
       127.234	             	  5.100e-001 	
       127.295	  6.700e-003 	             	
       127.298	             	  5.100e-001 	
       127.359	  6.710e-003 	             	
       127.362	             	  5.100e-001 	
       127.423	  6.690e-003 	             	
       127.426	             	  5.100e-001 	
       127.487	  6.690e-003 	             	
       127.490	             	  5.100e-001 	
       127.551	  6.680e-003 	             	
       127.554	             	  5.100e-001 	
       127.615	  6.690e-003 	             	
       127.650	             	  5.100e-001 	
       127.679	  6.680e-003 	             	
       127.714	             	  5.100e-001 	
       127.775	  6.680e-003 	             	
       127.778	             	  5.100e-001 	
       127.839	  6.630e-003 	             	
       127.842	             	  5.100e-001 	
       127.903	  6.650e-003 	             	
       127.906	             	  5.100e-001 	
       127.968	  6.660e-003 	             	
       127.970	             	  5.100e-001 	
       128.031	  6.660e-003 	             	
       128.034	             	  5.100e-001 	
       128.095	  6.650e-003 	             	
       128.098	             	  5.100e-001 	
       128.159	  6.660e-003 	             	
       128.162	             	  5.100e-001 	
       128.223	  6.670e-003 	             	
       128.226	             	  5.100e-001 	
       128.287	  6.640e-003 	             	
       128.290	             	  5.100e-001 	
       128.351	  6.640e-003 	             	
       128.354	             	  5.100e-001 	
       128.415	  6.660e-003 	             	
       128.418	             	  5.100e-001 	
       128.479	  6.660e-003 	             	
       128.514	             	  5.100e-001 	
       128.575	  6.720e-003 	             	
       128.578	             	  5.100e-001 	
       128.639	  6.720e-003 	             	
       128.642	             	  5.100e-001 	
       128.703	  6.770e-003 	             	
       128.706	             	  5.100e-001 	
       128.767	  6.800e-003 	             	
       128.770	             	  5.100e-001 	
       128.831	  6.810e-003 	             	
       128.834	             	  5.100e-001 	
       128.895	  6.810e-003 	             	
       128.898	             	  5.100e-001 	
       128.959	  6.830e-003 	             	
       128.962	             	  5.100e-001 	
       129.023	  6.830e-003 	             	
       129.026	             	  5.100e-001 	
       129.087	  6.830e-003 	             	
       129.090	             	  5.100e-001 	
       129.151	  6.890e-003 	             	
       129.154	             	  5.100e-001 	
       129.215	  6.910e-003 	             	
       129.218	             	  5.100e-001 	
       129.279	  6.890e-003 	             	
       129.314	             	  5.100e-001 	
       129.375	  6.930e-003 	             	
       129.378	             	  5.100e-001 	
       129.439	  6.940e-003 	             	
       129.442	             	  5.100e-001 	
       129.503	  6.950e-003 	             	
       129.506	             	  5.100e-001 	
       129.567	  6.970e-003 	             	
       129.570	             	  5.100e-001 	
       129.631	  6.960e-003 	             	
       129.634	             	  5.100e-001 	
       129.695	  6.970e-003 	             	
       129.698	             	  5.100e-001 	
       129.759	  7.000e-003 	             	
       129.762	             	  5.100e-001 	
       129.823	  7.020e-003 	             	
       129.826	             	  5.100e-001 	
       129.887	  7.020e-003 	             	
       129.890	             	  5.100e-001 	
       129.951	  7.030e-003 	             	
       129.954	             	  5.100e-001 	
       130.015	  7.010e-003 	             	
       130.018	             	  5.100e-001 	
       130.079	  7.050e-003 	             	
       130.114	             	  5.090e-001 	
       130.175	  7.070e-003 	             	
       130.178	             	  5.090e-001 	
       130.239	  7.040e-003 	             	
       130.242	             	  5.090e-001 	
       130.303	  7.080e-003 	             	
       130.306	             	  5.100e-001 	
       130.367	  7.050e-003 	             	
       130.370	             	  5.100e-001 	
       130.431	  7.060e-003 	             	
       130.434	             	  5.100e-001 	
       130.495	  7.040e-003 	             	
       130.498	             	  5.100e-001 	
       130.559	  7.080e-003 	             	
       130.562	             	  5.100e-001 	
       130.623	  7.050e-003 	             	
       130.626	             	  5.100e-001 	
       130.687	  7.030e-003 	             	
       130.690	             	  5.100e-001 	
       130.751	  7.010e-003 	             	
       130.754	             	  5.100e-001 	
       130.815	  7.060e-003 	             	
       130.818	             	  5.100e-001 	
       130.879	  7.030e-003 	             	
       130.914	             	  5.100e-001 	
       130.975	  7.010e-003 	             	
       130.978	             	  5.100e-001 	
       131.039	  7.030e-003 	             	
       131.042	             	  5.100e-001 	
       131.103	  6.990e-003 	             	
       131.106	             	  5.100e-001 	
       131.167	  7.000e-003 	             	
       131.170	             	  5.100e-001 	
       131.231	  6.930e-003 	             	
       131.234	             	  5.100e-001 	
       131.295	  6.920e-003 	             	
       131.298	             	  5.100e-001 	
       131.359	  6.900e-003 	             	
       131.362	             	  5.100e-001 	
       131.423	  6.890e-003 	             	
       131.426	             	  5.100e-001 	
       131.487	  6.850e-003 	             	
       131.490	             	  5.100e-001 	
       131.551	  6.840e-003 	             	
       131.554	             	  5.100e-001 	
       131.615	  6.820e-003 	             	
       131.618	             	  5.100e-001 	
       131.679	  6.840e-003 	             	
       131.714	             	  5.100e-001 	
       131.775	  6.810e-003 	             	
       131.778	             	  5.100e-001 	
       131.839	  6.820e-003 	             	
       131.842	             	  5.100e-001 	
       131.903	  6.780e-003 	             	
       131.906	             	  5.100e-001 	
       131.967	  6.780e-003 	             	
       131.970	             	  5.100e-001 	
       132.031	  6.780e-003 	             	
       132.034	             	  5.100e-001 	
       132.095	  6.740e-003 	             	
       132.098	             	  5.100e-001 	
       132.159	  6.740e-003 	             	
       132.162	             	  5.100e-001 	
       132.223	  6.740e-003 	             	
       132.226	             	  5.100e-001 	
       132.287	  6.730e-003 	             	
       132.290	             	  5.100e-001 	
       132.351	  6.720e-003 	             	
       132.354	             	  5.100e-001 	
       132.415	  6.760e-003 	             	
       132.418	             	  5.100e-001 	
       132.479	  6.750e-003 	             	
       132.514	             	  5.100e-001 	
       132.575	  6.730e-003 	             	
       132.578	             	  5.100e-001 	
       132.639	  6.730e-003 	             	
       132.642	             	  5.100e-001 	
       132.703	  6.710e-003 	             	
       132.706	             	  5.100e-001 	
       132.767	  6.720e-003 	             	
       132.770	             	  5.100e-001 	
       132.831	  6.710e-003 	             	
       132.834	             	  5.100e-001 	
       132.895	  6.710e-003 	             	
       132.898	             	  5.100e-001 	
       132.959	  6.700e-003 	             	
       132.962	             	  5.100e-001 	
       133.023	  6.710e-003 	             	
       133.026	             	  5.100e-001 	
       133.087	  6.710e-003 	             	
       133.090	             	  5.100e-001 	
       133.151	  6.720e-003 	             	
       133.154	             	  5.100e-001 	
       133.215	  6.710e-003 	             	
       133.218	             	  5.100e-001 	
       133.279	  6.710e-003 	             	
       133.314	             	  5.100e-001 	
       133.375	  6.690e-003 	             	
       133.378	             	  5.100e-001 	
       133.439	  6.700e-003 	             	
       133.442	             	  5.100e-001 	
       133.503	  6.690e-003 	             	
       133.506	             	  5.100e-001 	
       133.567	  6.690e-003 	             	
       133.570	             	  5.100e-001 	
       133.631	  6.720e-003 	             	
       133.634	             	  5.100e-001 	
       133.695	  6.700e-003 	             	
       133.698	             	  5.100e-001 	
       133.759	  6.710e-003 	             	
       133.762	             	  5.100e-001 	
       133.823	  6.720e-003 	             	
       133.826	             	  5.100e-001 	
       133.887	  6.730e-003 	             	
       133.890	             	  5.100e-001 	
       133.951	  6.720e-003 	             	
       133.954	             	  5.100e-001 	
       134.015	  6.730e-003 	             	
       134.018	             	  5.100e-001 	
       134.079	  6.770e-003 	             	
       134.114	             	  5.100e-001 	
       134.175	  6.770e-003 	             	
       134.178	             	  5.100e-001 	
       134.239	  6.790e-003 	             	
       134.242	             	  5.100e-001 	
       134.303	  6.830e-003 	             	
       134.306	             	  5.100e-001 	
       134.367	  6.820e-003 	             	
       134.370	             	  5.100e-001 	
       134.431	  6.830e-003 	             	
       134.434	             	  5.100e-001 	
       134.495	  6.860e-003 	             	
       134.498	             	  5.100e-001 	
       134.559	  6.870e-003 	             	
       134.562	             	  5.100e-001 	
       134.623	  6.880e-003 	             	
       134.626	             	  5.100e-001 	
       134.687	  6.930e-003 	             	
       134.690	             	  5.100e-001 	
       134.751	  6.960e-003 	             	
       134.754	             	  5.100e-001 	
       134.815	  7.020e-003 	             	
       134.818	             	  5.100e-001 	
       134.879	  7.040e-003 	             	
       134.914	             	  5.100e-001 	
       134.975	  7.060e-003 	             	
       134.978	             	  5.100e-001 	
       135.039	  7.070e-003 	             	
       135.042	             	  5.100e-001 	
       135.103	  7.080e-003 	             	
       135.106	             	  5.100e-001 	
       135.167	  7.050e-003 	             	
       135.170	             	  5.100e-001 	
       135.231	  7.080e-003 	             	
       135.234	             	  5.100e-001 	
       135.295	  7.060e-003 	             	
       135.298	             	  5.100e-001 	
       135.359	  7.030e-003 	             	
       135.362	             	  5.100e-001 	
       135.423	  7.030e-003 	             	
       135.426	             	  5.100e-001 	
       135.487	  7.010e-003 	             	
       135.490	             	  5.100e-001 	
       135.551	  7.020e-003 	             	
       135.554	             	  5.100e-001 	
       135.615	  6.990e-003 	             	
       135.618	             	  5.100e-001 	
       135.679	  6.950e-003 	             	
       135.714	             	  5.100e-001 	
       135.743	  6.930e-003 	             	
       135.778	             	  5.100e-001 	
       135.839	  6.930e-003 	             	
       135.842	             	  5.100e-001 	
       135.903	  6.900e-003 	             	
       135.906	             	  5.100e-001 	
       135.967	  6.850e-003 	             	
       135.970	             	  5.100e-001 	
       136.031	  6.880e-003 	             	
       136.034	             	  5.100e-001 	
       136.095	  6.900e-003 	             	
       136.098	             	  5.100e-001 	
       136.159	  6.870e-003 	             	
       136.162	             	  5.100e-001 	
       136.223	  6.860e-003 	             	
       136.226	             	  5.100e-001 	
       136.287	  6.850e-003 	             	
       136.290	             	  5.100e-001 	
       136.351	  6.870e-003 	             	
       136.354	             	  5.100e-001 	
       136.415	  6.860e-003 	             	
       136.418	             	  5.100e-001 	
       136.479	  6.860e-003 	             	
       136.514	             	  5.100e-001 	
       136.543	  6.890e-003 	             	
       136.578	             	  5.100e-001 	
       136.639	  6.850e-003 	             	
       136.642	             	  5.100e-001 	
       136.703	  6.850e-003 	             	
       136.706	             	  5.100e-001 	
       136.767	  6.840e-003 	             	
       136.770	             	  5.100e-001 	
       136.831	  6.840e-003 	             	
       136.834	             	  5.100e-001 	
       136.895	  6.820e-003 	             	
       136.897	             	  5.100e-001 	
       136.959	  6.810e-003 	             	
       136.962	             	  5.100e-001 	
       137.023	  6.810e-003 	             	
       137.026	             	  5.100e-001 	
       137.087	  6.830e-003 	             	
       137.090	             	  5.100e-001 	
       137.151	  6.850e-003 	             	
       137.154	             	  5.100e-001 	
       137.215	  6.810e-003 	             	
       137.217	             	  5.100e-001 	
       137.279	  6.810e-003 	             	
       137.315	             	  5.100e-001 	
       137.344	  6.770e-003 	             	
       137.379	             	  5.100e-001 	
       137.440	  6.820e-003 	             	
       137.443	             	  5.100e-001 	
       137.504	  6.760e-003 	             	
       137.507	             	  5.100e-001 	
       137.568	  6.780e-003 	             	
       137.571	             	  5.100e-001 	
       137.632	  6.770e-003 	             	
       137.635	             	  5.100e-001 	
       137.696	  6.750e-003 	             	
       137.699	             	  5.100e-001 	
       137.760	  6.790e-003 	             	
       137.763	             	  5.100e-001 	
       137.824	  6.770e-003 	             	
       137.827	             	  5.100e-001 	
       137.888	  6.760e-003 	             	
       137.891	             	  5.100e-001 	
       137.952	  6.760e-003 	             	
       137.955	             	  5.090e-001 	
       138.016	  6.750e-003 	             	
       138.019	             	  5.090e-001 	
       138.080	  6.740e-003 	             	
       138.115	             	  5.100e-001 	
       138.144	  6.730e-003 	             	
       138.179	             	  5.100e-001 	
       138.240	  6.740e-003 	             	
       138.243	             	  5.100e-001 	
       138.304	  6.720e-003 	             	
       138.307	             	  5.100e-001 	
       138.368	  6.710e-003 	             	
       138.371	             	  5.100e-001 	
       138.432	  6.710e-003 	             	
       138.434	             	  5.100e-001 	
       138.496	  6.700e-003 	             	
       138.498	             	  5.100e-001 	
       138.560	  6.690e-003 	             	
       138.563	             	  5.100e-001 	
       138.624	  6.710e-003 	             	
       138.627	             	  5.100e-001 	
       138.688	  6.700e-003 	             	
       138.690	             	  5.100e-001 	
       138.752	  6.700e-003 	             	
       138.754	             	  5.100e-001 	
       138.816	  6.680e-003 	             	
       138.818	             	  5.100e-001 	
       138.880	  6.680e-003 	             	
       138.914	             	  5.100e-001 	
       138.944	  6.660e-003 	             	
       138.979	             	  5.100e-001 	
       139.040	  6.650e-003 	             	
       139.042	             	  5.100e-001 	
       139.104	  6.690e-003 	             	
       139.107	             	  5.100e-001 	
       139.168	  6.680e-003 	             	
       139.170	             	  5.100e-001 	
       139.232	  6.660e-003 	             	
       139.234	             	  5.100e-001 	
       139.296	  6.710e-003 	             	
       139.298	             	  5.100e-001 	
       139.360	  6.690e-003 	             	
       139.362	             	  5.100e-001 	
       139.424	  6.720e-003 	             	
       139.426	             	  5.100e-001 	
       139.488	  6.710e-003 	             	
       139.490	             	  5.100e-001 	
       139.552	  6.750e-003 	             	
       139.554	             	  5.100e-001 	
       139.616	  6.770e-003 	             	
       139.618	             	  5.100e-001 	
       139.680	  6.790e-003 	             	
       139.714	             	  5.100e-001 	
       139.744	  6.760e-003 	             	
       139.778	             	  5.100e-001 	
       139.840	  6.750e-003 	             	
       139.842	             	  5.100e-001 	
       139.904	  6.780e-003 	             	
       139.906	             	  5.100e-001 	
       139.967	  6.770e-003 	             	
       139.970	             	  5.100e-001 	
       140.032	  6.750e-003 	             	
       140.034	             	  5.100e-001 	
       140.096	  6.740e-003 	             	
       140.098	             	  5.100e-001 	
       140.159	  6.740e-003 	             	
       140.163	             	  5.100e-001 	
       140.224	  6.760e-003 	             	
       140.226	             	  5.100e-001 	
       140.288	  6.830e-003 	             	
       140.290	             	  5.100e-001 	
       140.351	  6.830e-003 	             	
       140.354	             	  5.100e-001 	
       140.415	  6.890e-003 	             	
       140.418	             	  5.100e-001 	
       140.480	  6.950e-003 	             	
       140.514	             	  5.100e-001 	
       140.544	  6.960e-003 	             	
       140.578	             	  5.100e-001 	
       140.640	  6.990e-003 	             	
       140.642	             	  5.100e-001 	
       140.703	  7.000e-003 	             	
       140.706	             	  5.100e-001 	
       140.768	  7.010e-003 	             	
       140.770	             	  5.100e-001 	
       140.832	  6.990e-003 	             	
       140.834	             	  5.100e-001 	
       140.896	  6.990e-003 	             	
       140.898	             	  5.100e-001 	
       140.959	  6.980e-003 	             	
       140.962	             	  5.100e-001 	
       141.023	  6.980e-003 	             	
       141.026	             	  5.100e-001 	
       141.087	  6.990e-003 	             	
       141.090	             	  5.100e-001 	
       141.151	  6.850e-003 	             	
       141.154	             	  5.100e-001 	
       141.216	  6.790e-003 	             	
       141.218	             	  5.100e-001 	
       141.279	  6.780e-003 	             	
       141.282	             	  5.100e-001 	
       141.343	  6.770e-003 	             	
       141.378	             	  5.100e-001 	
       141.439	  6.780e-003 	             	
       141.442	             	  5.100e-001 	
       141.503	  6.740e-003 	             	
       141.506	             	  5.100e-001 	
       141.567	  6.760e-003 	             	
       141.570	             	  5.100e-001 	
       141.631	  6.770e-003 	             	
       141.634	             	  5.110e-001 	
       141.695	  6.780e-003 	             	
       141.698	             	  5.110e-001 	
       141.759	  6.760e-003 	             	
       141.762	             	  5.100e-001 	
       141.823	  6.770e-003 	             	
       141.826	             	  5.100e-001 	
       141.887	  6.760e-003 	             	
       141.890	             	  5.100e-001 	
       141.952	  6.720e-003 	             	
       141.954	             	  5.100e-001 	
       142.015	  6.720e-003 	             	
       142.018	             	  5.100e-001 	
       142.079	  6.730e-003 	             	
       142.082	             	  5.100e-001 	
       142.143	  6.720e-003 	             	
       142.178	             	  5.100e-001 	
       142.239	  6.690e-003 	             	
       142.242	             	  5.100e-001 	
       142.303	  6.690e-003 	             	
       142.306	             	  5.100e-001 	
       142.367	  6.700e-003 	             	
       142.370	             	  5.100e-001 	
       142.431	  6.690e-003 	             	
       142.434	             	  5.100e-001 	
       142.495	  6.640e-003 	             	
       142.498	             	  5.100e-001 	
       142.559	  6.650e-003 	             	
       142.562	             	  5.100e-001 	
       142.623	  6.620e-003 	             	
       142.626	             	  5.100e-001 	
       142.687	  6.610e-003 	             	
       142.690	             	  5.100e-001 	
